adjusted timestamps,timestamps,TP9,AF7,AF8,TP10,Right AUX
2023/07/18 15:40:23.756,1689709223.756000000,-72.266,104.492,-503.418,-78.613,0
2023/07/18 15:40:23.760,1689709223.760000000,-0.488,54.688,-469.238,-52.734,0
2023/07/18 15:40:23.763,1689709223.763000000,170.898,-19.531,-429.199,-7.812,0
2023/07/18 15:40:23.767,1689709223.767000000,133.789,-34.18,-442.383,-16.602,0
2023/07/18 15:40:23.771,1689709223.771000000,-35.645,-36.133,-507.324,-88.867,0
2023/07/18 15:40:23.775,1689709223.775000000,-19.531,-42.48,-511.719,-86.914,0
2023/07/18 15:40:23.779,1689709223.779000000,152.344,-56.641,-585.449,19.531,0
2023/07/18 15:40:23.783,1689709223.783000000,200.195,-57.129,-593.75,43.457,0
2023/07/18 15:40:23.787,1689709223.787000000,56.641,-28.32,-407.715,-65.43,0
2023/07/18 15:40:23.791,1689709223.791000000,1.465,-36.621,-454.102,-101.074,0
2023/07/18 15:40:23.795,1689709223.795000000,181.152,-57.129,-413.086,22.949,0
2023/07/18 15:40:23.798,1689709223.798000000,337.402,-55.664,-316.895,117.188,0
2023/07/18 15:40:23.803,1689709223.803000000,0,-41.992,-365.234,-21.973,0
2023/07/18 15:40:23.807,1689709223.807000000,0,-38.574,-423.34,-146.484,0
2023/07/18 15:40:23.810,1689709223.810000000,0,-49.805,-388.672,-39.062,0
2023/07/18 15:40:23.814,1689709223.814000000,0,-44.922,-252.93,48.828,0
2023/07/18 15:40:23.818,1689709223.818000000,0,-39.551,-293.457,13.672,0
2023/07/18 15:40:23.822,1689709223.822000000,0,-38.574,-504.395,-88.379,0
2023/07/18 15:40:23.826,1689709223.826000000,0,-49.805,-561.523,-62.012,0
2023/07/18 15:40:23.830,1689709223.830000000,0,-29.785,-343.75,33.203,0
2023/07/18 15:40:23.834,1689709223.834000000,0,-2.441,-255.859,-7.812,0
2023/07/18 15:40:23.838,1689709223.838000000,0,-20.996,-444.336,-89.355,0
2023/07/18 15:40:23.842,1689709223.842000000,0,-20.02,-480.469,-59.082,0
2023/07/18 15:40:23.845,1689709223.845000000,0,-2.93,-283.691,27.344,0
2023/07/18 15:40:23.850,1689709223.850000000,247.559,0.488,-282.715,27.344,0
2023/07/18 15:40:23.854,1689709223.854000000,80.078,20.996,-397.461,-0.977,0
2023/07/18 15:40:23.857,1689709223.857000000,1.465,65.43,-424.316,-62.988,0
2023/07/18 15:40:23.861,1689709223.861000000,159.18,67.871,-335.938,-5.859,0
2023/07/18 15:40:23.865,1689709223.865000000,299.805,10.742,-332.52,33.203,0
2023/07/18 15:40:23.869,1689709223.869000000,172.363,-28.32,-464.355,-47.852,0
2023/07/18 15:40:23.873,1689709223.873000000,45.898,-31.25,-474.121,-31.25,0
2023/07/18 15:40:23.877,1689709223.877000000,156.25,-12.207,-436.523,37.598,0
2023/07/18 15:40:23.881,1689709223.881000000,263.672,-0.488,-373.047,34.18,0
2023/07/18 15:40:23.885,1689709223.885000000,162.598,-16.113,-530.273,13.672,0
2023/07/18 15:40:23.889,1689709223.889000000,-20.508,-17.09,-577.148,-74.707,0
2023/07/18 15:40:23.892,1689709223.892000000,-3.418,-0.488,-383.301,-108.398,0
2023/07/18 15:40:23.897,1689709223.897000000,163.574,-3.418,-346.191,26.855,0
2023/07/18 15:40:23.900,1689709223.900000000,130.371,-11.719,-326.172,18.555,0
2023/07/18 15:40:23.904,1689709223.904000000,-52.734,-22.949,-346.191,-72.754,0
2023/07/18 15:40:23.908,1689709223.908000000,-74.707,-25.391,-315.43,-36.621,0
2023/07/18 15:40:23.912,1689709223.912000000,97.168,-31.738,-292.969,13.672,0
2023/07/18 15:40:23.916,1689709223.916000000,166.992,-34.668,-310.059,-12.207,0
2023/07/18 15:40:23.920,1689709223.920000000,-16.602,-27.344,-289.062,-60.547,0
2023/07/18 15:40:23.924,1689709223.924000000,-139.16,-23.926,-223.633,-71.777,0
2023/07/18 15:40:23.928,1689709223.928000000,3.418,-29.297,-289.551,92.773,0
2023/07/18 15:40:23.932,1689709223.932000000,116.211,-26.367,-240.234,88.379,0
2023/07/18 15:40:23.935,1689709223.935000000,-29.297,-21.484,-119.629,-58.594,0
2023/07/18 15:40:23.939,1689709223.939000000,-158.691,-7.324,-175.781,-122.559,0
2023/07/18 15:40:23.943,1689709223.943000000,-56.152,-5.371,-294.922,-79.59,0
2023/07/18 15:40:23.947,1689709223.947000000,113.281,1.953,-207.031,43.945,0
2023/07/18 15:40:23.951,1689709223.951000000,65.918,32.715,125.488,39.062,0
2023/07/18 15:40:23.955,1689709223.955000000,-93.262,23.438,38.086,-80.566,0
2023/07/18 15:40:23.959,1689709223.959000000,-32.715,27.344,43.457,-121.582,0
2023/07/18 15:40:23.963,1689709223.963000000,137.207,54.199,168.945,72.754,0
2023/07/18 15:40:23.967,1689709223.967000000,102.539,58.105,136.23,94.727,0
2023/07/18 15:40:23.971,1689709223.971000000,-83.984,44.922,89.844,-124.512,0
2023/07/18 15:40:23.975,1689709223.975000000,-128.906,16.602,-109.375,-66.895,0
2023/07/18 15:40:23.978,1689709223.978000000,35.645,3.418,-39.551,42.969,0
2023/07/18 15:40:23.982,1689709223.982000000,140.137,11.719,250,37.109,0
2023/07/18 15:40:23.986,1689709223.986000000,-20.508,-8.301,130.371,-57.617,0
2023/07/18 15:40:23.990,1689709223.990000000,-175.781,-32.227,40.039,-145.996,0
2023/07/18 15:40:23.994,1689709223.994000000,-27.832,-5.859,171.875,-73.73,0
2023/07/18 15:40:23.998,1689709223.998000000,111.816,43.457,280.273,3.418,0
2023/07/18 15:40:24.002,1689709224.002000000,-15.137,54.688,179.199,-28.809,0
2023/07/18 15:40:24.006,1689709224.006000000,-146.973,57.129,109.375,-87.891,0
2023/07/18 15:40:24.010,1689709224.010000000,-79.59,59.57,154.785,-62.5,0
2023/07/18 15:40:24.014,1689709224.014000000,65.918,62.988,258.789,-7.324,0
2023/07/18 15:40:24.018,1689709224.018000000,50.293,62.5,247.559,-0.977,0
2023/07/18 15:40:24.021,1689709224.021000000,-144.043,42.969,89.844,-18.555,0
2023/07/18 15:40:24.025,1689709224.025000000,-156.738,52.246,147.461,-61.523,0
2023/07/18 15:40:24.029,1689709224.029000000,64.941,65.918,258.301,14.648,0
2023/07/18 15:40:24.033,1689709224.033000000,152.344,65.43,147.461,68.848,0
2023/07/18 15:40:24.037,1689709224.037000000,-65.43,53.223,105.957,-53.711,0
2023/07/18 15:40:24.041,1689709224.041000000,-189.453,41.016,149.414,-99.121,0
2023/07/18 15:40:24.045,1689709224.045000000,-7.812,35.645,83.008,10.742,0
2023/07/18 15:40:24.049,1689709224.049000000,99.609,37.109,86.914,41.504,0
2023/07/18 15:40:24.053,1689709224.053000000,-26.367,35.645,35.156,-42.48,0
2023/07/18 15:40:24.057,1689709224.057000000,-141.113,16.602,-185.059,-78.125,0
2023/07/18 15:40:24.061,1689709224.061000000,-27.344,15.137,-203.613,-25.391,0
2023/07/18 15:40:24.064,1689709224.064000000,117.188,11.23,-299.805,48.828,0
2023/07/18 15:40:24.068,1689709224.068000000,26.855,16.602,-374.023,17.09,0
2023/07/18 15:40:24.072,1689709224.072000000,-145.508,30.273,-272.949,-88.867,0
2023/07/18 15:40:24.076,1689709224.076000000,-118.164,20.508,-326.66,-85.449,0
2023/07/18 15:40:24.080,1689709224.080000000,54.688,16.602,-311.523,5.371,0
2023/07/18 15:40:24.084,1689709224.084000000,67.871,23.438,-314.453,-0.488,0
2023/07/18 15:40:24.088,1689709224.088000000,-95.215,29.297,-398.926,-86.914,0
2023/07/18 15:40:24.092,1689709224.092000000,-147.461,17.578,-450.684,-70.312,0
2023/07/18 15:40:24.096,1689709224.096000000,-6.348,12.695,-407.715,36.621,0
2023/07/18 15:40:24.100,1689709224.100000000,55.176,17.578,-374.512,49.316,0
2023/07/18 15:40:24.104,1689709224.104000000,-70.801,8.301,-451.172,-66.895,0
2023/07/18 15:40:24.108,1689709224.108000000,-131.348,4.883,-560.059,-56.641,0
2023/07/18 15:40:24.111,1689709224.111000000,-20.996,7.812,-570.801,41.992,0
2023/07/18 15:40:24.115,1689709224.115000000,60.059,23.438,-395.508,48.34,0
2023/07/18 15:40:24.119,1689709224.119000000,-48.34,31.25,-443.848,-20.996,0
2023/07/18 15:40:24.123,1689709224.123000000,-162.598,24.414,-602.051,-91.309,0
2023/07/18 15:40:24.127,1689709224.127000000,-49.316,33.691,-586.426,15.137,0
2023/07/18 15:40:24.131,1689709224.131000000,0,47.363,-478.516,71.777,0
2023/07/18 15:40:24.135,1689709224.135000000,0,51.27,-529.297,-39.062,0
2023/07/18 15:40:24.139,1689709224.139000000,0,42.48,-657.227,-103.516,0
2023/07/18 15:40:24.143,1689709224.143000000,0,44.922,-637.695,-29.297,0
2023/07/18 15:40:24.147,1689709224.147000000,0,57.617,-547.852,52.734,0
2023/07/18 15:40:24.150,1689709224.150000000,0,46.875,-604.492,-3.418,0
2023/07/18 15:40:24.154,1689709224.154000000,0,22.461,-700.684,-68.359,0
2023/07/18 15:40:24.158,1689709224.158000000,0,29.297,-731.445,-59.57,0
2023/07/18 15:40:24.162,1689709224.162000000,0,48.34,-645.996,-3.418,0
2023/07/18 15:40:24.166,1689709224.166000000,0,52.734,-566.406,17.578,0
2023/07/18 15:40:24.170,1689709224.170000000,0,32.715,-753.418,-35.156,0
2023/07/18 15:40:24.174,1689709224.174000000,0,33.203,-744.141,-94.238,0
2023/07/18 15:40:24.178,1689709224.178000000,46.387,62.012,-517.578,-6.348,0
2023/07/18 15:40:24.182,1689709224.182000000,169.922,61.035,-488.281,49.805,0
2023/07/18 15:40:24.186,1689709224.186000000,55.176,50.293,-533.691,-42.969,0
2023/07/18 15:40:24.190,1689709224.190000000,-115.234,48.828,-552.734,-95.703,0
2023/07/18 15:40:24.193,1689709224.193000000,-17.09,44.434,-509.277,12.695,0
2023/07/18 15:40:24.197,1689709224.197000000,178.711,34.668,-499.023,35.156,0
2023/07/18 15:40:24.201,1689709224.201000000,140.625,25.879,-524.902,-48.828,0
2023/07/18 15:40:24.205,1689709224.205000000,-42.969,37.109,-436.523,-102.539,0
2023/07/18 15:40:24.209,1689709224.209000000,-24.902,46.387,-347.168,-65.43,0
2023/07/18 15:40:24.213,1689709224.213000000,179.199,37.109,-382.324,40.039,0
2023/07/18 15:40:24.217,1689709224.217000000,166.016,27.344,-373.535,91.797,0
2023/07/18 15:40:24.221,1689709224.221000000,-7.324,30.273,-312.988,-34.668,0
2023/07/18 15:40:24.225,1689709224.225000000,-31.738,30.762,-312.5,-122.07,0
2023/07/18 15:40:24.229,1689709224.229000000,127.441,20.508,-275.391,4.883,0
2023/07/18 15:40:24.232,1689709224.232000000,201.66,17.578,-176.27,64.453,0
2023/07/18 15:40:24.236,1689709224.236000000,30.273,16.602,-104.004,-76.66,0
2023/07/18 15:40:24.240,1689709224.240000000,-86.914,9.277,-213.867,-162.598,0
2023/07/18 15:40:24.244,1689709224.244000000,31.25,-3.418,-276.855,-52.246,0
2023/07/18 15:40:24.248,1689709224.248000000,187.012,8.789,-54.199,7.324,0
2023/07/18 15:40:24.252,1689709224.252000000,118.652,32.715,119.141,-49.805,0
2023/07/18 15:40:24.256,1689709224.256000000,-43.457,32.227,75.684,-116.699,0
2023/07/18 15:40:24.260,1689709224.260000000,20.508,31.25,37.109,-60.059,0
2023/07/18 15:40:24.264,1689709224.264000000,183.594,43.457,208.496,21.484,0
2023/07/18 15:40:24.267,1689709224.267000000,144.043,40.527,326.66,-26.855,0
2023/07/18 15:40:24.272,1689709224.272000000,-14.16,18.555,255.859,-80.078,0
2023/07/18 15:40:24.275,1689709224.275000000,-44.434,13.672,298.828,-89.844,0
2023/07/18 15:40:24.279,1689709224.279000000,104.98,12.207,429.688,-13.184,0
2023/07/18 15:40:24.283,1689709224.283000000,141.602,-0.488,483.887,37.598,0
2023/07/18 15:40:24.287,1689709224.287000000,-9.766,-13.672,425.781,-69.336,0
2023/07/18 15:40:24.291,1689709224.291000000,-64.941,-26.855,345.215,-125,0
2023/07/18 15:40:24.295,1689709224.295000000,92.285,-10.254,418.457,-72.754,0
2023/07/18 15:40:24.299,1689709224.299000000,192.383,-67.871,517.578,-16.602,0
2023/07/18 15:40:24.303,1689709224.303000000,33.691,-195.801,379.395,-36.133,0
2023/07/18 15:40:24.307,1689709224.307000000,-80.566,-226.562,269.531,-69.336,0
2023/07/18 15:40:24.310,1689709224.310000000,16.113,-184.082,406.25,-7.324,0
2023/07/18 15:40:24.314,1689709224.314000000,224.121,-163.574,468.75,49.805,0
2023/07/18 15:40:24.319,1689709224.319000000,172.852,-165.039,329.59,10.742,0
2023/07/18 15:40:24.323,1689709224.323000000,-102.051,-139.16,260.742,-73.242,0
2023/07/18 15:40:24.326,1689709224.326000000,-68.848,-88.867,310.059,-46.387,0
2023/07/18 15:40:24.330,1689709224.330000000,113.77,-69.336,353.027,1.953,0
2023/07/18 15:40:24.334,1689709224.334000000,70.801,-84.473,308.594,-36.621,0
2023/07/18 15:40:24.338,1689709224.338000000,-91.797,-83.008,178.711,-104.98,0
2023/07/18 15:40:24.342,1689709224.342000000,-78.613,-61.035,144.531,-104.004,0
2023/07/18 15:40:24.346,1689709224.346000000,112.305,-39.062,229.98,8.301,0
2023/07/18 15:40:24.350,1689709224.350000000,156.25,-45.41,94.238,55.664,0
2023/07/18 15:40:24.354,1689709224.354000000,-38.086,-33.691,45.41,-33.203,0
2023/07/18 15:40:24.358,1689709224.358000000,-122.559,-1.465,242.676,-103.027,0
2023/07/18 15:40:24.361,1689709224.361000000,19.531,6.836,227.539,-36.621,0
2023/07/18 15:40:24.366,1689709224.366000000,0,14.648,230.957,19.531,0
2023/07/18 15:40:24.369,1689709224.369000000,0,15.137,219.727,-14.16,0
2023/07/18 15:40:24.373,1689709224.373000000,0,6.836,161.621,-89.355,0
2023/07/18 15:40:24.377,1689709224.377000000,0,-2.93,127.441,-28.32,0
2023/07/18 15:40:24.381,1689709224.381000000,0,-3.906,144.043,71.777,0
2023/07/18 15:40:24.385,1689709224.385000000,0,-2.93,117.188,20.996,0
2023/07/18 15:40:24.389,1689709224.389000000,0,-12.695,61.523,-96.191,0
2023/07/18 15:40:24.393,1689709224.393000000,0,-21.484,-44.922,-69.824,0
2023/07/18 15:40:24.397,1689709224.397000000,0,-24.414,-62.988,36.621,0
2023/07/18 15:40:24.401,1689709224.401000000,0,-19.043,52.246,-5.859,0
2023/07/18 15:40:24.404,1689709224.404000000,0,-21.484,-64.453,-70.801,0
2023/07/18 15:40:24.408,1689709224.408000000,0,-37.109,-394.531,-69.824,0
2023/07/18 15:40:24.412,1689709224.412000000,13.184,-27.832,-392.578,-8.301,0
2023/07/18 15:40:24.416,1689709224.416000000,85.449,-6.348,-219.727,45.898,0
2023/07/18 15:40:24.420,1689709224.420000000,-45.41,-11.719,-300.781,-44.434,0
2023/07/18 15:40:24.424,1689709224.424000000,-144.043,-39.062,-547.363,-95.215,0
2023/07/18 15:40:24.428,1689709224.428000000,-6.348,-35.645,-631.836,-4.883,0
2023/07/18 15:40:24.432,1689709224.432000000,105.957,-5.859,-456.543,20.996,0
2023/07/18 15:40:24.436,1689709224.436000000,-16.602,-6.836,-502.93,-19.531,0
2023/07/18 15:40:24.440,1689709224.440000000,-151.367,-26.855,-741.699,-50.781,0
2023/07/18 15:40:24.444,1689709224.444000000,-95.703,-18.555,-772.461,-15.625,0
2023/07/18 15:40:24.447,1689709224.447000000,51.27,17.09,-517.578,34.18,0
2023/07/18 15:40:24.451,1689709224.451000000,20.508,18.555,-579.102,-10.254,0
2023/07/18 15:40:24.455,1689709224.455000000,-157.227,12.207,-725.098,-83.984,0
2023/07/18 15:40:24.459,1689709224.459000000,0,17.09,-669.922,-68.359,0
2023/07/18 15:40:24.463,1689709224.463000000,0,25.391,-577.148,0.488,0
2023/07/18 15:40:24.467,1689709224.467000000,0,19.043,-631.348,43.457,0
2023/07/18 15:40:24.471,1689709224.471000000,0,14.648,-730.469,-48.828,0
2023/07/18 15:40:24.475,1689709224.475000000,0,20.996,-740.234,-117.676,0
2023/07/18 15:40:24.479,1689709224.479000000,0,17.09,-708.984,5.371,0
2023/07/18 15:40:24.483,1689709224.483000000,0,12.207,-722.656,44.434,0
2023/07/18 15:40:24.486,1689709224.486000000,0,3.906,-797.852,-30.273,0
2023/07/18 15:40:24.490,1689709224.490000000,0,18.066,-750,-101.562,0
2023/07/18 15:40:24.494,1689709224.494000000,0,22.461,-704.102,-46.387,0
2023/07/18 15:40:24.498,1689709224.498000000,0,13.672,-682.129,53.223,0
2023/07/18 15:40:24.502,1689709224.502000000,0,16.113,-690.918,-6.348,0
2023/07/18 15:40:24.506,1689709224.506000000,-200.684,30.762,-691.895,-120.117,0
2023/07/18 15:40:24.510,1689709224.510000000,-128.418,36.621,-717.285,-90.82,0
2023/07/18 15:40:24.514,1689709224.514000000,50.781,32.715,-697.754,48.34,0
2023/07/18 15:40:24.518,1689709224.518000000,26.367,44.434,-693.359,25.391,0
2023/07/18 15:40:24.522,1689709224.522000000,-212.402,70.801,-770.508,-182.617,0
2023/07/18 15:40:24.526,1689709224.526000000,-301.758,87.402,-797.852,-247.07,0
2023/07/18 15:40:24.529,1689709224.529000000,-191.895,79.102,-855.469,-154.297,0
2023/07/18 15:40:24.533,1689709224.533000000,-205.566,83.008,-862.305,-174.805,0
2023/07/18 15:40:24.537,1689709224.537000000,-434.57,103.516,-761.23,-345.703,0
2023/07/18 15:40:24.541,1689709224.541000000,-566.895,101.562,-821.777,-461.914,0
2023/07/18 15:40:24.545,1689709224.545000000,-442.383,79.59,-808.105,-399.414,0
2023/07/18 15:40:24.549,1689709224.549000000,-362.305,58.594,-716.309,-336.426,0
2023/07/18 15:40:24.553,1689709224.553000000,-478.516,42.969,-698.242,-407.715,0
2023/07/18 15:40:24.557,1689709224.557000000,-591.309,24.902,-740.234,-483.398,0
2023/07/18 15:40:24.561,1689709224.561000000,-503.906,16.113,-693.359,-381.348,0
2023/07/18 15:40:24.565,1689709224.565000000,-301.27,29.297,-572.754,-258.789,0
2023/07/18 15:40:24.568,1689709224.568000000,-355.957,36.133,-595.215,-342.773,0
2023/07/18 15:40:24.572,1689709224.572000000,-560.059,-2.441,-789.062,-371.094,0
2023/07/18 15:40:24.576,1689709224.576000000,-511.23,-7.324,-833.984,-344.238,0
2023/07/18 15:40:24.580,1689709224.580000000,-282.227,-42.48,-674.805,-361.816,0
2023/07/18 15:40:24.584,1689709224.584000000,-208.984,-155.273,-690.43,-341.309,0
2023/07/18 15:40:24.588,1689709224.588000000,-399.414,-194.824,-812.988,-399.414,0
2023/07/18 15:40:24.592,1689709224.592000000,-423.828,-173.34,-830.078,-412.598,0
2023/07/18 15:40:24.596,1689709224.596000000,-209.473,-130.371,-702.148,-289.062,0
2023/07/18 15:40:24.600,1689709224.600000000,0,-121.582,-648.438,-237.793,0
2023/07/18 15:40:24.604,1689709224.604000000,0,-144.531,-711.426,-288.086,0
2023/07/18 15:40:24.607,1689709224.607000000,0,-156.25,-673.828,-298.828,0
2023/07/18 15:40:24.611,1689709224.611000000,0,-155.273,-511.23,-188.965,0
2023/07/18 15:40:24.615,1689709224.615000000,0,-138.184,-424.805,-89.844,0
2023/07/18 15:40:24.619,1689709224.619000000,0,-133.789,-509.766,-130.371,0
2023/07/18 15:40:24.623,1689709224.623000000,0,-145.996,-462.402,-210.938,0
2023/07/18 15:40:24.627,1689709224.627000000,0,-118.652,-284.668,-186.035,0
2023/07/18 15:40:24.631,1689709224.631000000,0,-114.746,-96.68,-76.66,0
2023/07/18 15:40:24.635,1689709224.635000000,0,-154.785,-23.438,-75.195,0
2023/07/18 15:40:24.639,1689709224.639000000,0,-170.898,32.715,-151.367,0
2023/07/18 15:40:24.642,1689709224.642000000,0,-169.434,225.586,-147.949,0
2023/07/18 15:40:24.647,1689709224.647000000,115.723,-166.504,298.34,-29.785,0
2023/07/18 15:40:24.650,1689709224.650000000,170.898,-166.992,338.379,-17.09,0
2023/07/18 15:40:24.654,1689709224.654000000,17.09,-159.18,376.953,-94.238,0
2023/07/18 15:40:24.658,1689709224.658000000,-22.461,-151.367,405.273,-113.77,0
2023/07/18 15:40:24.662,1689709224.662000000,153.809,-145.508,443.848,-35.156,0
2023/07/18 15:40:24.666,1689709224.666000000,234.863,-137.695,471.191,25.879,0
2023/07/18 15:40:24.670,1689709224.670000000,119.141,-121.582,511.23,-55.664,0
2023/07/18 15:40:24.674,1689709224.674000000,23.438,-118.652,554.199,-89.844,0
2023/07/18 15:40:24.678,1689709224.678000000,127.441,-135.254,561.523,10.254,0
2023/07/18 15:40:24.682,1689709224.682000000,245.117,-131.836,563.477,56.641,0
2023/07/18 15:40:24.685,1689709224.685000000,152.832,-99.121,606.934,-13.184,0
2023/07/18 15:40:24.689,1689709224.689000000,16.602,-85.938,577.148,-82.52,0
2023/07/18 15:40:24.693,1689709224.693000000,83.496,-87.891,514.648,-39.551,0
2023/07/18 15:40:24.697,1689709224.697000000,252.441,-75.195,570.801,31.738,0
2023/07/18 15:40:24.701,1689709224.701000000,204.59,-59.082,612.793,24.902,0
2023/07/18 15:40:24.705,1689709224.705000000,29.785,-65.43,568.848,-35.645,0
2023/07/18 15:40:24.709,1689709224.709000000,35.156,-62.5,534.18,-38.086,0
2023/07/18 15:40:24.713,1689709224.713000000,186.035,-46.387,543.457,53.711,0
2023/07/18 15:40:24.717,1689709224.717000000,198.73,-59.57,550.781,78.125,0
2023/07/18 15:40:24.721,1689709224.721000000,54.199,-42.48,532.715,-1.465,0
2023/07/18 15:40:24.725,1689709224.725000000,-12.207,-45.898,409.18,-35.156,0
2023/07/18 15:40:24.728,1689709224.728000000,112.793,-55.176,462.402,41.504,0
2023/07/18 15:40:24.732,1689709224.732000000,230.469,-38.086,610.352,84.473,0
2023/07/18 15:40:24.736,1689709224.736000000,111.328,-60.547,498.535,25.391,0
2023/07/18 15:40:24.740,1689709224.740000000,-28.809,-67.871,432.617,5.859,0
2023/07/18 15:40:24.744,1689709224.744000000,64.941,-51.27,479.492,90.82,0
2023/07/18 15:40:24.748,1689709224.748000000,223.145,-42.969,485.352,106.934,0
2023/07/18 15:40:24.752,1689709224.752000000,153.32,-66.895,377.441,19.043,0
2023/07/18 15:40:24.756,1689709224.756000000,15.625,-74.219,297.852,-69.824,0
2023/07/18 15:40:24.760,1689709224.760000000,29.297,-41.504,257.812,-52.734,0
2023/07/18 15:40:24.764,1689709224.764000000,143.555,-27.344,281.738,56.641,0
2023/07/18 15:40:24.768,1689709224.768000000,141.113,-49.316,219.238,57.129,0
2023/07/18 15:40:24.771,1689709224.771000000,-20.996,-74.707,-47.852,-7.812,0
2023/07/18 15:40:24.775,1689709224.775000000,-41.992,-51.758,44.922,0.977,0
2023/07/18 15:40:24.779,1689709224.779000000,125.488,-32.227,220.215,101.562,0
2023/07/18 15:40:24.783,1689709224.783000000,182.617,-47.363,109.375,118.164,0
2023/07/18 15:40:24.787,1689709224.787000000,16.113,-42.48,0,19.043,0
2023/07/18 15:40:24.791,1689709224.791000000,-70.312,-12.695,0,-25.879,0
2023/07/18 15:40:24.795,1689709224.795000000,88.379,14.648,0,51.27,0
2023/07/18 15:40:24.799,1689709224.799000000,213.867,1.465,0,143.555,0
2023/07/18 15:40:24.803,1689709224.803000000,125.488,-37.109,0,92.773,0
2023/07/18 15:40:24.807,1689709224.807000000,-15.137,-42.48,0,-3.418,0
2023/07/18 15:40:24.811,1689709224.811000000,34.18,-18.555,0,33.691,0
2023/07/18 15:40:24.814,1689709224.814000000,184.57,-42.48,0,125.488,0
2023/07/18 15:40:24.818,1689709224.818000000,124.512,-55.176,0,88.867,0
2023/07/18 15:40:24.822,1689709224.822000000,-64.453,-33.203,0,-18.066,0
2023/07/18 15:40:24.826,1689709224.826000000,-33.203,-33.203,0,13.672,0
2023/07/18 15:40:24.830,1689709224.830000000,131.836,-32.227,0,96.191,0
2023/07/18 15:40:24.834,1689709224.834000000,119.141,-24.414,-208.984,80.078,0
2023/07/18 15:40:24.838,1689709224.838000000,-46.387,-19.043,-265.137,6.836,0
2023/07/18 15:40:24.842,1689709224.842000000,-81.055,-30.762,-383.789,-0.488,0
2023/07/18 15:40:24.846,1689709224.846000000,75.684,-6.348,-354.98,62.5,0
2023/07/18 15:40:24.850,1689709224.850000000,118.164,39.062,-323.73,92.285,0
2023/07/18 15:40:24.854,1689709224.854000000,-39.062,-10.742,-462.891,30.762,0
2023/07/18 15:40:24.857,1689709224.857000000,-143.066,-61.523,-559.57,-51.27,0
2023/07/18 15:40:24.861,1689709224.861000000,-24.414,-49.316,-612.305,31.738,0
2023/07/18 15:40:24.865,1689709224.865000000,130.371,-39.551,-457.52,112.305,0
2023/07/18 15:40:24.869,1689709224.869000000,35.156,-46.387,-468.262,16.602,0
2023/07/18 15:40:24.873,1689709224.873000000,-141.113,-71.777,-644.043,-61.035,0
2023/07/18 15:40:24.877,1689709224.877000000,-74.707,-56.641,-619.629,-31.738,0
2023/07/18 15:40:24.881,1689709224.881000000,108.398,-15.137,-497.559,62.5,0
2023/07/18 15:40:24.885,1689709224.885000000,59.082,8.789,-569.336,70.801,0
2023/07/18 15:40:24.889,1689709224.889000000,-137.695,32.715,-668.457,-41.016,0
2023/07/18 15:40:24.893,1689709224.893000000,-124.512,63.965,-618.652,-20.02,0
2023/07/18 15:40:24.896,1689709224.896000000,56.641,70.801,-561.523,83.496,0
2023/07/18 15:40:24.900,1689709224.900000000,114.746,23.438,-620.605,96.191,0
2023/07/18 15:40:24.904,1689709224.904000000,-7.812,6.348,-791.016,31.25,0
2023/07/18 15:40:24.908,1689709224.908000000,-116.211,30.762,-830.566,-8.301,0
2023/07/18 15:40:24.912,1689709224.912000000,-25.391,-4.883,-615.723,1.953,0
2023/07/18 15:40:24.916,1689709224.916000000,87.402,-50.293,-621.582,41.992,0
2023/07/18 15:40:24.920,1689709224.920000000,-21.973,-62.012,-724.609,9.766,0
2023/07/18 15:40:24.924,1689709224.924000000,-130.859,-25.391,-720.215,-17.578,0
2023/07/18 15:40:24.928,1689709224.928000000,3.906,41.016,-647.461,74.707,0
2023/07/18 15:40:24.932,1689709224.932000000,138.184,40.039,-637.695,141.113,0
2023/07/18 15:40:24.935,1689709224.935000000,52.246,37.109,-699.219,74.707,0
2023/07/18 15:40:24.939,1689709224.939000000,-97.168,12.207,-734.375,-16.602,0
2023/07/18 15:40:24.943,1689709224.943000000,-51.758,-77.637,-695.312,9.277,0
2023/07/18 15:40:24.947,1689709224.947000000,135.742,-115.234,-659.668,123.535,0
2023/07/18 15:40:24.951,1689709224.951000000,108.887,-88.867,-706.055,127.441,0
2023/07/18 15:40:24.955,1689709224.955000000,-87.402,-45.41,-658.203,12.207,0
2023/07/18 15:40:24.959,1689709224.959000000,-85.938,-58.105,-620.117,-11.23,0
2023/07/18 15:40:24.963,1689709224.963000000,82.031,-72.754,-648.438,62.988,0
2023/07/18 15:40:24.967,1689709224.967000000,107.422,-54.688,-682.617,96.68,0
2023/07/18 15:40:24.971,1689709224.971000000,-55.664,-51.27,-648.438,11.23,0
2023/07/18 15:40:24.975,1689709224.975000000,-112.305,-55.176,-688.965,-24.902,0
2023/07/18 15:40:24.978,1689709224.978000000,26.855,-3.418,-677.734,61.523,0
2023/07/18 15:40:24.982,1689709224.982000000,119.629,50.781,-645.02,100.098,0
2023/07/18 15:40:24.986,1689709224.986000000,-12.207,15.625,-666.016,7.324,0
2023/07/18 15:40:24.990,1689709224.990000000,-136.23,-32.227,-767.09,-49.805,0
2023/07/18 15:40:24.994,1689709224.994000000,-38.086,-55.664,-812.5,44.922,0
2023/07/18 15:40:24.998,1689709224.998000000,90.82,-54.688,-771.973,118.652,0
2023/07/18 15:40:25.002,1689709225.002000000,1.465,-36.133,-751.953,60.059,0
2023/07/18 15:40:25.006,1689709225.006000000,-154.785,-39.062,-789.551,-73.73,0
2023/07/18 15:40:25.010,1689709225.010000000,-106.934,-16.113,-800.293,-43.457,0
2023/07/18 15:40:25.013,1689709225.013000000,45.41,22.949,-683.105,66.406,0
2023/07/18 15:40:25.017,1689709225.017000000,35.156,-6.348,-634.277,41.504,0
2023/07/18 15:40:25.021,1689709225.021000000,0,-53.223,-754.883,-44.434,0
2023/07/18 15:40:25.025,1689709225.025000000,0,-54.199,-764.16,-36.621,0
2023/07/18 15:40:25.029,1689709225.029000000,0,-36.621,-678.711,41.992,0
2023/07/18 15:40:25.033,1689709225.033000000,0,-27.344,-643.066,35.645,0
2023/07/18 15:40:25.037,1689709225.037000000,0,-32.715,-715.82,-35.156,0
2023/07/18 15:40:25.041,1689709225.041000000,0,-47.852,-821.289,-52.734,0
2023/07/18 15:40:25.045,1689709225.045000000,0,-41.016,-713.867,-5.859,0
2023/07/18 15:40:25.049,1689709225.049000000,0,-26.367,-625.977,15.625,0
2023/07/18 15:40:25.053,1689709225.053000000,0,-33.203,-806.152,-8.789,0
2023/07/18 15:40:25.056,1689709225.056000000,0,-39.062,-878.906,-39.062,0
2023/07/18 15:40:25.060,1689709225.060000000,0,-4.395,-720.215,-19.531,0
2023/07/18 15:40:25.064,1689709225.064000000,0,34.668,-655.762,31.25,0
2023/07/18 15:40:25.068,1689709225.068000000,7.812,12.207,-703.613,22.461,0
2023/07/18 15:40:25.072,1689709225.072000000,-151.855,-14.648,-765.625,-73.73,0
2023/07/18 15:40:25.076,1689709225.076000000,-130.371,-13.184,-723.145,-84.473,0
2023/07/18 15:40:25.080,1689709225.080000000,28.32,-4.395,-624.023,19.043,0
2023/07/18 15:40:25.084,1689709225.084000000,21.973,11.719,-667.48,4.883,0
2023/07/18 15:40:25.088,1689709225.088000000,-136.719,17.09,-756.348,-99.121,0
2023/07/18 15:40:25.092,1689709225.092000000,-163.574,29.785,-728.027,-97.656,0
2023/07/18 15:40:25.096,1689709225.096000000,-6.348,40.039,-606.445,-9.277,0
2023/07/18 15:40:25.099,1689709225.099000000,65.918,-15.137,-678.711,46.387,0
2023/07/18 15:40:25.103,1689709225.103000000,-90.332,-50.781,-755.859,-26.855,0
2023/07/18 15:40:25.107,1689709225.107000000,-197.266,-22.949,-633.301,-92.773,0
2023/07/18 15:40:25.111,1689709225.111000000,-79.59,4.883,-586.914,-29.297,0
2023/07/18 15:40:25.115,1689709225.115000000,43.457,21.973,-515.625,16.602,0
2023/07/18 15:40:25.119,1689709225.119000000,-22.461,0.977,-515.137,-33.203,0
2023/07/18 15:40:25.123,1689709225.123000000,-162.109,-23.438,-573.242,-89.355,0
2023/07/18 15:40:25.127,1689709225.127000000,-116.699,-42.48,-564.453,-48.828,0
2023/07/18 15:40:25.131,1689709225.131000000,36.621,-24.414,-516.113,20.996,0
2023/07/18 15:40:25.135,1689709225.135000000,12.207,18.555,-560.059,3.418,0
2023/07/18 15:40:25.139,1689709225.139000000,-157.715,1.953,-629.883,-67.383,0
2023/07/18 15:40:25.142,1689709225.142000000,-159.18,-19.531,-664.062,-80.566,0
2023/07/18 15:40:25.146,1689709225.146000000,22.461,-14.648,-673.828,31.738,0
2023/07/18 15:40:25.150,1689709225.150000000,41.992,15.625,-509.766,43.457,0
2023/07/18 15:40:25.154,1689709225.154000000,-134.766,21.973,-544.922,-89.355,0
2023/07/18 15:40:25.158,1689709225.158000000,-201.172,-1.953,-629.883,-117.188,0
2023/07/18 15:40:25.162,1689709225.162000000,0,-5.371,-608.887,-11.23,0
2023/07/18 15:40:25.166,1689709225.166000000,0,23.438,-472.656,28.809,0
2023/07/18 15:40:25.170,1689709225.170000000,0,25.391,-478.027,-54.199,0
2023/07/18 15:40:25.174,1689709225.174000000,0,20.996,-551.27,-114.746,0
2023/07/18 15:40:25.178,1689709225.178000000,0,37.598,-492.188,-36.621,0
2023/07/18 15:40:25.182,1689709225.182000000,0,27.832,-458.984,67.383,0
2023/07/18 15:40:25.185,1689709225.185000000,0,30.273,-449.707,-5.859,0
2023/07/18 15:40:25.189,1689709225.189000000,0,13.672,-663.086,-113.281,0
2023/07/18 15:40:25.193,1689709225.193000000,0,9.277,-641.602,-74.219,0
2023/07/18 15:40:25.197,1689709225.197000000,0,55.176,-364.258,4.395,0
2023/07/18 15:40:25.201,1689709225.201000000,0,34.18,-404.785,5.371,0
2023/07/18 15:40:25.205,1689709225.205000000,0,3.906,-496.094,-82.52,0
2023/07/18 15:40:25.209,1689709225.209000000,-218.75,-6.836,-451.172,-94.238,0
2023/07/18 15:40:25.213,1689709225.213000000,-49.316,23.438,-330.078,-10.742,0
2023/07/18 15:40:25.217,1689709225.217000000,-12.207,54.688,-358.887,4.883,0
2023/07/18 15:40:25.221,1689709225.221000000,-169.922,26.855,-453.613,-46.875,0
2023/07/18 15:40:25.224,1689709225.224000000,-232.91,25.391,-456.543,-67.871,0
2023/07/18 15:40:25.228,1689709225.228000000,-109.863,42.969,-431.641,-29.297,0
2023/07/18 15:40:25.232,1689709225.232000000,-10.742,34.668,-430.664,-6.836,0
2023/07/18 15:40:25.236,1689709225.236000000,-111.816,31.25,-547.363,-52.246,0
2023/07/18 15:40:25.240,1689709225.240000000,-242.188,56.641,-457.52,-106.934,0
2023/07/18 15:40:25.244,1689709225.244000000,-153.809,54.688,-363.77,-31.25,0
2023/07/18 15:40:25.248,1689709225.248000000,-1.953,-1.953,-432.617,31.25,0
2023/07/18 15:40:25.252,1689709225.252000000,-51.758,-39.551,-488.281,-29.297,0
2023/07/18 15:40:25.256,1689709225.256000000,-226.562,-41.992,0,-91.797,0
2023/07/18 15:40:25.260,1689709225.260000000,-204.59,-40.039,0,-62.5,0
2023/07/18 15:40:25.264,1689709225.264000000,-25.391,-34.668,0,28.32,0
2023/07/18 15:40:25.267,1689709225.267000000,-27.832,-26.855,0,32.227,0
2023/07/18 15:40:25.271,1689709225.271000000,-181.152,-16.602,0,-57.129,0
2023/07/18 15:40:25.275,1689709225.275000000,-202.148,-16.113,0,-89.355,0
2023/07/18 15:40:25.279,1689709225.279000000,-50.293,-28.32,0,11.23,0
2023/07/18 15:40:25.283,1689709225.283000000,14.648,-17.578,0,26.855,0
2023/07/18 15:40:25.287,1689709225.287000000,-142.578,9.277,0,-57.129,0
2023/07/18 15:40:25.291,1689709225.291000000,-250,-8.301,0,-86.914,0
2023/07/18 15:40:25.295,1689709225.295000000,-108.887,-28.32,0,-27.832,0
2023/07/18 15:40:25.299,1689709225.299000000,23.926,-23.926,0,15.137,0
2023/07/18 15:40:25.303,1689709225.303000000,-60.059,-25.391,-375,-33.203,0
2023/07/18 15:40:25.306,1689709225.306000000,-190.918,-43.457,-475.586,-69.824,0
2023/07/18 15:40:25.310,1689709225.310000000,-127.441,-47.363,-445.801,-47.852,0
2023/07/18 15:40:25.314,1689709225.314000000,26.855,-25.391,-352.051,-1.953,0
2023/07/18 15:40:25.318,1689709225.318000000,-18.555,18.066,-364.258,-26.855,0
2023/07/18 15:40:25.322,1689709225.322000000,-177.246,41.992,-535.156,-99.121,0
2023/07/18 15:40:25.326,1689709225.326000000,-157.227,52.734,-593.262,-48.34,0
2023/07/18 15:40:25.330,1689709225.330000000,6.836,96.191,-413.574,27.832,0
2023/07/18 15:40:25.334,1689709225.334000000,32.227,119.629,-360.352,-12.207,0
2023/07/18 15:40:25.338,1689709225.338000000,-135.742,108.887,-510.742,-79.102,0
2023/07/18 15:40:25.341,1689709225.341000000,-186.523,103.027,-573.242,-86.426,0
2023/07/18 15:40:25.345,1689709225.345000000,-13.672,113.77,-414.551,-1.465,0
2023/07/18 15:40:25.349,1689709225.349000000,74.707,115.723,-359.863,39.062,0
2023/07/18 15:40:25.353,1689709225.353000000,-58.105,96.68,-414.551,-56.152,0
2023/07/18 15:40:25.357,1689709225.357000000,-157.715,88.867,-466.309,-96.68,0
2023/07/18 15:40:25.361,1689709225.361000000,-35.156,90.332,-379.395,-39.062,0
2023/07/18 15:40:25.365,1689709225.365000000,114.258,74.707,-297.363,3.418,0
2023/07/18 15:40:25.369,1689709225.369000000,19.531,48.828,-409.18,-12.695,0
2023/07/18 15:40:25.373,1689709225.373000000,-142.09,41.016,-486.816,-83.984,0
2023/07/18 15:40:25.377,1689709225.377000000,-73.242,51.758,-371.094,-60.059,0
2023/07/18 15:40:25.380,1689709225.380000000,108.398,67.383,-259.277,4.883,0
2023/07/18 15:40:25.384,1689709225.384000000,99.609,50.781,-405.273,20.996,0
2023/07/18 15:40:25.388,1689709225.388000000,-76.66,45.41,-450.195,-37.109,0
2023/07/18 15:40:25.392,1689709225.392000000,-96.191,58.105,-308.105,-86.426,0
2023/07/18 15:40:25.396,1689709225.396000000,0,47.363,-296.387,7.812,0
2023/07/18 15:40:25.400,1689709225.400000000,0,59.082,-328.125,36.133,0
2023/07/18 15:40:25.404,1689709225.404000000,0,22.949,-355.469,-60.059,0
2023/07/18 15:40:25.408,1689709225.408000000,0,-63.965,-345.215,-102.539,0
2023/07/18 15:40:25.412,1689709225.412000000,0,-50.781,-364.258,-35.156,0
2023/07/18 15:40:25.416,1689709225.416000000,0,-7.324,-399.414,16.602,0
2023/07/18 15:40:25.420,1689709225.420000000,0,14.648,-378.418,-22.461,0
2023/07/18 15:40:25.424,1689709225.424000000,0,37.109,-357.422,-86.426,0
2023/07/18 15:40:25.427,1689709225.427000000,0,31.25,-421.387,-29.297,0
2023/07/18 15:40:25.431,1689709225.431000000,0,37.598,-450.684,59.082,0
2023/07/18 15:40:25.435,1689709225.435000000,0,-9.277,-294.922,1.953,0
2023/07/18 15:40:25.439,1689709225.439000000,0,-124.512,-363.281,-79.59,0
2023/07/18 15:40:25.443,1689709225.443000000,-40.039,-154.297,0,-70.312,0
2023/07/18 15:40:25.447,1689709225.447000000,129.883,-141.602,0,0.488,0
2023/07/18 15:40:25.451,1689709225.451000000,96.68,-136.719,0,4.395,0
2023/07/18 15:40:25.455,1689709225.455000000,-74.707,-149.902,0,-71.777,0
2023/07/18 15:40:25.459,1689709225.459000000,-109.863,-154.785,0,-85.449,0
2023/07/18 15:40:25.463,1689709225.463000000,49.316,-142.09,0,-2.441,0
2023/07/18 15:40:25.467,1689709225.467000000,117.676,-130.371,0,0.977,0
2023/07/18 15:40:25.470,1689709225.470000000,-37.598,-113.77,0,-99.121,0
2023/07/18 15:40:25.474,1689709225.474000000,-134.277,-118.164,0,-96.68,0
2023/07/18 15:40:25.478,1689709225.478000000,-1.465,-106.934,0,-8.789,0
2023/07/18 15:40:25.482,1689709225.482000000,125,-72.266,0,6.348,0
2023/07/18 15:40:25.486,1689709225.486000000,8.301,-80.566,0,-63.965,0
2023/07/18 15:40:25.490,1689709225.490000000,-139.648,-94.238,-271.484,-141.602,0
2023/07/18 15:40:25.494,1689709225.494000000,-39.551,-85.449,-210.938,-88.867,0
2023/07/18 15:40:25.498,1689709225.498000000,111.328,-74.707,-175.781,-6.836,0
2023/07/18 15:40:25.502,1689709225.502000000,50.293,-74.707,-257.812,-34.18,0
2023/07/18 15:40:25.506,1689709225.506000000,-105.469,-64.941,-325.195,-110.352,0
2023/07/18 15:40:25.509,1689709225.509000000,-72.266,-58.594,-333.008,-64.453,0
2023/07/18 15:40:25.513,1689709225.513000000,99.121,-49.805,-230.469,25.391,0
2023/07/18 15:40:25.517,1689709225.517000000,121.582,-40.527,-246.094,31.25,0
2023/07/18 15:40:25.521,1689709225.521000000,-28.809,-48.828,-444.824,-43.457,0
2023/07/18 15:40:25.525,1689709225.525000000,-74.219,-29.297,-335.449,-85.938,0
2023/07/18 15:40:25.529,1689709225.529000000,90.332,-6.348,-202.148,-19.531,0
2023/07/18 15:40:25.533,1689709225.533000000,170.41,-14.648,-268.555,14.16,0
2023/07/18 15:40:25.537,1689709225.537000000,21.973,-20.02,-345.703,-49.316,0
2023/07/18 15:40:25.541,1689709225.541000000,-90.332,-14.16,-306.641,-102.539,0
2023/07/18 15:40:25.545,1689709225.545000000,53.223,-6.348,-268.066,-17.09,0
2023/07/18 15:40:25.549,1689709225.549000000,200.684,-8.789,-237.793,43.457,0
2023/07/18 15:40:25.552,1689709225.552000000,133.301,-17.578,-299.805,-6.836,0
2023/07/18 15:40:25.556,1689709225.556000000,15.137,-13.672,-384.766,-69.824,0
2023/07/18 15:40:25.560,1689709225.560000000,52.246,-6.348,-319.824,-44.922,0
2023/07/18 15:40:25.564,1689709225.564000000,170.41,-9.766,-395.508,42.48,0
2023/07/18 15:40:25.568,1689709225.568000000,105.469,-8.789,-442.383,16.113,0
2023/07/18 15:40:25.572,1689709225.572000000,-76.66,6.348,-323.73,-85.938,0
2023/07/18 15:40:25.576,1689709225.576000000,-83.496,-4.395,-361.816,-63.477,0
2023/07/18 15:40:25.580,1689709225.580000000,89.355,-9.277,-341.797,22.461,0
2023/07/18 15:40:25.584,1689709225.584000000,123.047,0.977,-296.387,18.066,0
2023/07/18 15:40:25.588,1689709225.588000000,-59.082,-6.348,-388.184,-77.148,0
2023/07/18 15:40:25.592,1689709225.592000000,-123.535,-15.137,-458.984,-100.586,0
2023/07/18 15:40:25.595,1689709225.595000000,34.18,-6.836,-402.344,4.395,0
2023/07/18 15:40:25.599,1689709225.599000000,121.094,1.465,-377.441,41.504,0
2023/07/18 15:40:25.603,1689709225.603000000,-6.836,-13.184,-491.699,-50.293,0
2023/07/18 15:40:25.607,1689709225.607000000,-116.211,-26.855,-582.52,-93.262,0
2023/07/18 15:40:25.611,1689709225.611000000,-4.395,-21.973,-575.684,-18.066,0
2023/07/18 15:40:25.615,1689709225.615000000,127.441,6.836,-373.535,24.414,0
2023/07/18 15:40:25.619,1689709225.619000000,48.34,9.766,-352.539,-36.133,0
2023/07/18 15:40:25.623,1689709225.623000000,-106.934,-16.602,-551.27,-106.445,0
2023/07/18 15:40:25.627,1689709225.627000000,-75.195,-20.996,-540.039,-67.871,0
2023/07/18 15:40:25.631,1689709225.631000000,80.566,-2.93,-316.406,11.719,0
2023/07/18 15:40:25.634,1689709225.634000000,84.473,-8.301,-344.238,17.09,0
2023/07/18 15:40:25.638,1689709225.638000000,-94.727,-32.227,-462.402,-47.852,0
2023/07/18 15:40:25.642,1689709225.642000000,-139.648,-35.156,-448.242,-75.195,0
2023/07/18 15:40:25.646,1689709225.646000000,35.645,-28.32,-389.16,-14.16,0
2023/07/18 15:40:25.650,1689709225.650000000,81.543,-35.156,-364.258,6.348,0
2023/07/18 15:40:25.654,1689709225.654000000,-77.637,-52.734,-562.988,-43.457,0
2023/07/18 15:40:25.658,1689709225.658000000,-167.969,-43.457,-628.418,-90.332,0
2023/07/18 15:40:25.662,1689709225.662000000,-24.414,-17.09,-355.957,-53.711,0
2023/07/18 15:40:25.666,1689709225.666000000,89.355,-23.438,-359.375,-12.695,0
2023/07/18 15:40:25.669,1689709225.669000000,-19.043,-35.645,-483.398,-57.617,0
2023/07/18 15:40:25.673,1689709225.673000000,-153.32,-40.039,-526.367,-106.445,0
2023/07/18 15:40:25.677,1689709225.677000000,-75.195,-36.133,-440.43,-70.801,0
2023/07/18 15:40:25.681,1689709225.681000000,76.66,-29.785,-417.969,2.93,0
2023/07/18 15:40:25.685,1689709225.685000000,2.93,-33.203,-462.402,-20.02,0
2023/07/18 15:40:25.689,1689709225.689000000,-167.48,-32.715,-514.16,-91.797,0
2023/07/18 15:40:25.693,1689709225.693000000,-120.605,-21.973,-477.051,-80.566,0
2023/07/18 15:40:25.697,1689709225.697000000,55.664,-28.809,-471.191,0.977,0
2023/07/18 15:40:25.701,1689709225.701000000,30.762,-33.691,-540.039,3.906,0
2023/07/18 15:40:25.705,1689709225.705000000,-138.184,-11.719,-451.66,-74.219,0
2023/07/18 15:40:25.709,1689709225.709000000,-149.414,5.859,-413.574,-107.91,0
2023/07/18 15:40:25.712,1689709225.712000000,17.09,22.461,-452.637,-11.719,0
2023/07/18 15:40:25.716,1689709225.716000000,80.078,9.766,-440.918,34.18,0
2023/07/18 15:40:25.720,1689709225.720000000,-77.148,-2.93,-426.27,-59.57,0
2023/07/18 15:40:25.724,1689709225.724000000,-175.781,-8.301,-450.684,-101.074,0
2023/07/18 15:40:25.728,1689709225.728000000,-42.48,-7.812,-391.602,-25.391,0
2023/07/18 15:40:25.732,1689709225.732000000,65.918,0,-351.074,16.602,0
2023/07/18 15:40:25.736,1689709225.736000000,-41.992,-6.348,-388.672,-51.758,0
2023/07/18 15:40:25.740,1689709225.740000000,-173.34,-24.414,-471.68,-120.117,0
2023/07/18 15:40:25.744,1689709225.744000000,-86.426,-43.945,-538.574,-56.152,0
2023/07/18 15:40:25.748,1689709225.748000000,73.73,-42.969,-487.305,31.25,0
2023/07/18 15:40:25.751,1689709225.751000000,21.484,-25.391,-361.816,-2.441,0
2023/07/18 15:40:25.755,1689709225.755000000,-149.414,-27.344,-420.41,-88.867,0
2023/07/18 15:40:25.759,1689709225.759000000,-128.418,-39.062,-469.727,-81.543,0
2023/07/18 15:40:25.763,1689709225.763000000,48.828,-26.855,-317.871,-1.953,0
2023/07/18 15:40:25.767,1689709225.767000000,51.758,-21.973,-279.785,-10.254,0
2023/07/18 15:40:25.771,1689709225.771000000,-99.609,-19.531,-385.742,-83.008,0
2023/07/18 15:40:25.775,1689709225.775000000,-145.02,-11.23,-430.664,-86.914,0
2023/07/18 15:40:25.779,1689709225.779000000,-15.137,-13.672,-347.656,-18.066,0
2023/07/18 15:40:25.783,1689709225.783000000,63.965,-10.254,-270.996,6.836,0
2023/07/18 15:40:25.787,1689709225.787000000,-63.965,-26.367,-402.344,-53.223,0
2023/07/18 15:40:25.791,1689709225.791000000,-170.898,-42.969,-545.41,-98.633,0
2023/07/18 15:40:25.794,1689709225.794000000,-51.758,-33.203,-449.707,-54.688,0
2023/07/18 15:40:25.798,1689709225.798000000,83.984,-18.555,-306.152,-10.254,0
2023/07/18 15:40:25.802,1689709225.802000000,-14.648,-29.785,-441.406,-33.203,0
2023/07/18 15:40:25.806,1689709225.806000000,-151.367,-43.945,-577.148,-76.66,0
2023/07/18 15:40:25.810,1689709225.810000000,-92.773,-24.414,-402.344,-53.223,0
2023/07/18 15:40:25.814,1689709225.814000000,49.316,-16.602,-330.566,25.879,0
2023/07/18 15:40:25.818,1689709225.818000000,24.414,-30.762,-395.996,-4.883,0
2023/07/18 15:40:25.822,1689709225.822000000,-136.23,-35.156,-464.844,-96.68,0
2023/07/18 15:40:25.826,1689709225.826000000,-141.602,-29.785,-391.113,-70.312,0
2023/07/18 15:40:25.830,1689709225.830000000,29.297,-27.344,-305.664,20.02,0
2023/07/18 15:40:25.834,1689709225.834000000,58.594,-31.25,-365.234,-6.348,0
2023/07/18 15:40:25.837,1689709225.837000000,-111.328,-36.621,-452.148,-85.938,0
2023/07/18 15:40:25.841,1689709225.841000000,-161.621,-35.156,-441.406,-97.656,0
2023/07/18 15:40:25.845,1689709225.845000000,-12.207,-27.344,-356.445,-44.434,0
2023/07/18 15:40:25.849,1689709225.849000000,85.938,-34.668,-455.566,12.207,0
2023/07/18 15:40:25.853,1689709225.853000000,-44.434,-39.551,-525.879,-34.18,0
2023/07/18 15:40:25.857,1689709225.857000000,-167.48,-23.926,-360.352,-95.215,0
2023/07/18 15:40:25.861,1689709225.861000000,-67.383,-31.25,-381.348,-44.922,0
2023/07/18 15:40:25.865,1689709225.865000000,76.66,-30.762,-347.656,12.207,0
2023/07/18 15:40:25.869,1689709225.869000000,10.254,-21.973,-332.031,-33.203,0
2023/07/18 15:40:25.873,1689709225.873000000,-153.32,-26.855,-397.461,-104.004,0
2023/07/18 15:40:25.877,1689709225.877000000,-85.449,-32.715,-393.066,-64.453,0
2023/07/18 15:40:25.880,1689709225.880000000,102.539,-29.785,-373.047,-6.348,0
2023/07/18 15:40:25.884,1689709225.884000000,57.129,-27.832,-435.059,-34.668,0
2023/07/18 15:40:25.888,1689709225.888000000,-131.348,-30.273,-458.496,-69.824,0
2023/07/18 15:40:25.892,1689709225.892000000,-156.738,-33.691,-498.535,-90.332,0
2023/07/18 15:40:25.896,1689709225.896000000,-6.836,-38.574,-476.562,-28.809,0
2023/07/18 15:40:25.900,1689709225.900000000,55.664,-18.066,-310.059,-4.395,0
2023/07/18 15:40:25.904,1689709225.904000000,-79.59,-15.625,-326.172,-86.914,0
2023/07/18 15:40:25.908,1689709225.908000000,-156.25,-36.621,-485.352,-102.539,0
2023/07/18 15:40:25.912,1689709225.912000000,0,-34.668,-460.449,-40.527,0
2023/07/18 15:40:25.916,1689709225.916000000,0,-25.391,-256.348,-8.301,0
2023/07/18 15:40:25.920,1689709225.920000000,0,-36.621,-327.148,-61.523,0
2023/07/18 15:40:25.923,1689709225.923000000,0,-58.105,-454.102,-130.371,0
2023/07/18 15:40:25.927,1689709225.927000000,0,-57.129,-400.879,-70.312,0
2023/07/18 15:40:25.931,1689709225.931000000,0,-52.734,-363.77,15.137,0
2023/07/18 15:40:25.935,1689709225.935000000,0,-56.641,-419.434,-43.945,0
2023/07/18 15:40:25.939,1689709225.939000000,0,-72.754,-606.934,-112.305,0
2023/07/18 15:40:25.943,1689709225.943000000,0,-68.848,-646.973,-68.359,0
2023/07/18 15:40:25.947,1689709225.947000000,0,-34.668,-365.234,-15.625,0
2023/07/18 15:40:25.951,1689709225.951000000,0,-38.086,-360.84,-19.531,0
2023/07/18 15:40:25.955,1689709225.955000000,0,-51.27,-493.652,-113.281,0
2023/07/18 15:40:25.959,1689709225.959000000,-230.957,-31.25,-463.867,-133.301,0
2023/07/18 15:40:25.962,1689709225.962000000,-71.777,0,-389.648,-37.109,0
2023/07/18 15:40:25.966,1689709225.966000000,-12.207,7.812,-387.207,-31.738,0
2023/07/18 15:40:25.970,1689709225.970000000,-156.25,10.254,-440.918,-119.141,0
2023/07/18 15:40:25.974,1689709225.974000000,-242.188,8.789,-473.633,-140.625,0
2023/07/18 15:40:25.978,1689709225.978000000,-140.625,-20.996,-481.934,-69.824,0
2023/07/18 15:40:25.982,1689709225.982000000,-28.809,-30.762,-455.566,-7.324,0
2023/07/18 15:40:25.986,1689709225.986000000,-115.234,-13.672,-516.113,-15.625,0
2023/07/18 15:40:25.990,1689709225.990000000,-252.441,30.273,-491.211,-108.887,0
2023/07/18 15:40:25.994,1689709225.994000000,-170.41,56.152,-404.785,-107.422,0
2023/07/18 15:40:25.997,1689709225.997000000,0,41.016,-439.453,-9.766,0
2023/07/18 15:40:26.001,1689709226.001000000,-32.227,43.945,-511.719,-13.184,0
2023/07/18 15:40:26.005,1689709226.005000000,-197.754,46.875,-436.523,-112.793,0
2023/07/18 15:40:26.009,1689709226.009000000,-185.059,-23.438,-405.273,-104.004,0
2023/07/18 15:40:26.013,1689709226.013000000,-7.812,-86.914,-385.254,-15.137,0
2023/07/18 15:40:26.017,1689709226.017000000,26.367,-83.496,-359.375,-23.438,0
2023/07/18 15:40:26.021,1689709226.021000000,-101.074,-80.078,-436.035,-75.684,0
2023/07/18 15:40:26.025,1689709226.025000000,-165.527,-94.238,-494.629,-74.219,0
2023/07/18 15:40:26.029,1689709226.029000000,-54.199,-103.516,-573.73,14.648,0
2023/07/18 15:40:26.033,1689709226.033000000,36.621,-92.773,-557.617,27.344,0
2023/07/18 15:40:26.037,1689709226.037000000,-79.59,-66.406,-409.668,-102.539,0
2023/07/18 15:40:26.040,1689709226.040000000,-193.359,-68.359,-486.816,-159.668,0
2023/07/18 15:40:26.044,1689709226.044000000,-65.918,-72.754,-478.516,-86.426,0
2023/07/18 15:40:26.048,1689709226.048000000,100.098,-51.27,-377.93,-28.809,0
2023/07/18 15:40:26.052,1689709226.052000000,11.23,-9.277,-391.602,-53.711,0
2023/07/18 15:40:26.056,1689709226.056000000,-147.949,5.859,-518.066,-94.238,0
2023/07/18 15:40:26.060,1689709226.060000000,-83.984,0.488,-498.535,-93.262,0
2023/07/18 15:40:26.064,1689709226.064000000,75.684,-12.207,-358.887,-42.48,0
2023/07/18 15:40:26.068,1689709226.068000000,39.551,-3.418,-357.91,-12.207,0
2023/07/18 15:40:26.072,1689709226.072000000,-123.047,-20.996,-504.883,-82.031,0
2023/07/18 15:40:26.076,1689709226.076000000,-118.164,-66.406,-558.594,-63.965,0
2023/07/18 15:40:26.079,1689709226.079000000,49.805,-32.227,-382.812,27.832,0
2023/07/18 15:40:26.083,1689709226.083000000,77.637,19.043,-291.016,27.832,0
2023/07/18 15:40:26.087,1689709226.087000000,-64.453,24.902,-431.152,-36.133,0
2023/07/18 15:40:26.091,1689709226.091000000,-141.113,11.23,-528.809,-92.773,0
2023/07/18 15:40:26.095,1689709226.095000000,-9.766,10.254,-346.68,-18.555,0
2023/07/18 15:40:26.099,1689709226.099000000,110.352,34.18,-255.371,11.23,0
2023/07/18 15:40:26.103,1689709226.103000000,-7.812,3.906,-381.348,-87.891,0
2023/07/18 15:40:26.107,1689709226.107000000,-138.672,-63.477,-443.359,-131.836,0
2023/07/18 15:40:26.111,1689709226.111000000,-43.457,-47.363,-428.711,-42.969,0
2023/07/18 15:40:26.115,1689709226.115000000,97.168,-22.461,-371.094,7.324,0
2023/07/18 15:40:26.118,1689709226.118000000,38.086,-45.41,-494.629,-42.48,0
2023/07/18 15:40:26.122,1689709226.122000000,-120.117,-72.266,-593.75,-115.234,0
2023/07/18 15:40:26.126,1689709226.126000000,-102.539,-75.684,-442.871,-71.289,0
2023/07/18 15:40:26.130,1689709226.130000000,86.426,-50.781,-365.234,29.785,0
2023/07/18 15:40:26.134,1689709226.134000000,99.609,-66.406,-391.113,20.508,0
2023/07/18 15:40:26.138,1689709226.138000000,-87.402,-80.078,-369.141,-66.406,0
2023/07/18 15:40:26.142,1689709226.142000000,-106.934,-51.758,-342.285,-96.68,0
2023/07/18 15:40:26.146,1689709226.146000000,53.711,-64.453,-313.965,11.23,0
2023/07/18 15:40:26.150,1689709226.150000000,120.605,-61.523,-286.621,38.574,0
2023/07/18 15:40:26.154,1689709226.154000000,-22.949,-10.254,-304.199,-40.039,0
2023/07/18 15:40:26.158,1689709226.158000000,-115.234,27.344,-297.363,-78.125,0
2023/07/18 15:40:26.162,1689709226.162000000,34.668,6.348,-276.855,-30.273,0
2023/07/18 15:40:26.165,1689709226.165000000,145.996,-58.105,-238.281,38.086,0
2023/07/18 15:40:26.169,1689709226.169000000,9.766,-56.152,-229.98,-28.809,0
2023/07/18 15:40:26.173,1689709226.173000000,-109.863,-43.945,-236.816,-102.539,0
2023/07/18 15:40:26.177,1689709226.177000000,-34.18,-62.012,-258.301,-45.41,0
2023/07/18 15:40:26.181,1689709226.181000000,90.332,-70.801,-271.484,29.297,0
2023/07/18 15:40:26.185,1689709226.185000000,57.129,-65.918,-54.688,-42.48,0
2023/07/18 15:40:26.189,1689709226.189000000,-95.703,-46.875,-48.828,-138.184,0
2023/07/18 15:40:26.193,1689709226.193000000,0,-45.898,-195.312,-67.871,0
2023/07/18 15:40:26.197,1689709226.197000000,0,-58.105,-57.617,41.992,0
2023/07/18 15:40:26.201,1689709226.201000000,0,-59.57,72.266,7.812,0
2023/07/18 15:40:26.205,1689709226.205000000,0,-71.777,-11.23,-72.266,0
2023/07/18 15:40:26.208,1689709226.208000000,0,-73.242,-143.066,-87.402,0
2023/07/18 15:40:26.212,1689709226.212000000,0,-68.359,-158.203,-20.02,0
2023/07/18 15:40:26.216,1689709226.216000000,0,-62.988,8.789,-2.93,0
2023/07/18 15:40:26.220,1689709226.220000000,0,-58.594,-36.621,-85.449,0
2023/07/18 15:40:26.224,1689709226.224000000,0,-72.754,-350.098,-122.07,0
2023/07/18 15:40:26.228,1689709226.228000000,0,-53.223,-236.816,-55.176,0
2023/07/18 15:40:26.232,1689709226.232000000,0,-54.199,161.621,-2.441,0
2023/07/18 15:40:26.236,1689709226.236000000,0,-68.359,72.754,-43.457,0
2023/07/18 15:40:26.240,1689709226.240000000,-243.652,-65.43,41.992,-137.695,0
2023/07/18 15:40:26.244,1689709226.244000000,-96.68,-33.691,137.695,-119.629,0
2023/07/18 15:40:26.248,1689709226.248000000,78.125,-19.531,173.34,-3.418,0
2023/07/18 15:40:26.251,1689709226.251000000,-69.336,-52.734,149.414,-16.602,0
2023/07/18 15:40:26.255,1689709226.255000000,-146.484,-52.246,-16.602,-134.766,0
2023/07/18 15:40:26.259,1689709226.259000000,-151.367,-68.359,-214.355,-120.117,0
2023/07/18 15:40:26.263,1689709226.263000000,-23.926,-61.523,-50.293,-34.18,0
2023/07/18 15:40:26.267,1689709226.267000000,-87.402,-45.898,49.316,-62.5,0
2023/07/18 15:40:26.271,1689709226.271000000,-306.641,-50.781,-240.723,-109.375,0
2023/07/18 15:40:26.275,1689709226.275000000,-342.773,-43.945,-156.738,-106.934,0
2023/07/18 15:40:26.279,1689709226.279000000,-185.547,-82.52,2.441,-48.34,0
2023/07/18 15:40:26.283,1689709226.283000000,-81.055,-110.352,-102.539,9.766,0
2023/07/18 15:40:26.287,1689709226.287000000,-231.934,-113.281,-249.512,-77.148,0
2023/07/18 15:40:26.291,1689709226.291000000,-421.875,-126.953,-286.133,-165.527,0
2023/07/18 15:40:26.294,1689709226.294000000,-338.379,-138.184,-274.902,-88.379,0
2023/07/18 15:40:26.298,1689709226.298000000,-172.363,-117.676,-218.262,-16.602,0
2023/07/18 15:40:26.302,1689709226.302000000,-258.789,-112.305,-215.332,-96.191,0
2023/07/18 15:40:26.306,1689709226.306000000,-380.859,-125,-301.758,-198.242,0
2023/07/18 15:40:26.310,1689709226.310000000,-283.691,-119.629,-125,-148.926,0
2023/07/18 15:40:26.314,1689709226.314000000,-143.066,-139.16,-133.789,-3.418,0
2023/07/18 15:40:26.318,1689709226.318000000,-182.129,-129.883,-97.656,-28.32,0
2023/07/18 15:40:26.322,1689709226.322000000,-309.082,-113.77,143.555,-140.137,0
2023/07/18 15:40:26.326,1689709226.326000000,-292.48,-117.676,77.148,-170.41,0
2023/07/18 15:40:26.329,1689709226.329000000,-150.391,-116.211,112.793,-118.164,0
2023/07/18 15:40:26.333,1689709226.333000000,-129.395,-126.465,138.672,-88.379,0
2023/07/18 15:40:26.337,1689709226.337000000,-240.234,-122.559,93.262,-160.645,0
2023/07/18 15:40:26.341,1689709226.341000000,-318.848,-125.488,41.504,-183.594,0
2023/07/18 15:40:26.345,1689709226.345000000,-183.594,-119.629,48.828,-113.77,0
2023/07/18 15:40:26.349,1689709226.349000000,-46.387,-115.723,112.793,-60.547,0
2023/07/18 15:40:26.353,1689709226.353000000,-165.527,-133.789,6.836,-105.957,0
2023/07/18 15:40:26.357,1689709226.357000000,-289.551,-135.742,-217.285,-188.477,0
2023/07/18 15:40:26.361,1689709226.361000000,-200.195,-138.672,-300.781,-147.949,0
2023/07/18 15:40:26.365,1689709226.365000000,-68.848,-117.188,-21.484,-66.895,0
2023/07/18 15:40:26.368,1689709226.368000000,-126.953,-105.957,83.984,-94.727,0
2023/07/18 15:40:26.372,1689709226.372000000,-292.48,-133.789,-179.199,-194.336,0
2023/07/18 15:40:26.376,1689709226.376000000,-261.719,-136.23,-193.848,-176.27,0
2023/07/18 15:40:26.380,1689709226.380000000,-59.082,-120.117,76.172,-78.613,0
2023/07/18 15:40:26.384,1689709226.384000000,-45.41,-118.652,99.609,-110.352,0
2023/07/18 15:40:26.388,1689709226.388000000,-216.309,-135.254,-101.074,-162.109,0
2023/07/18 15:40:26.392,1689709226.392000000,-250,-131.348,-55.176,-164.551,0
2023/07/18 15:40:26.396,1689709226.396000000,-81.055,-105.957,152.832,-120.117,0
2023/07/18 15:40:26.400,1689709226.400000000,9.766,-102.539,208.496,-96.191,0
2023/07/18 15:40:26.404,1689709226.404000000,-134.277,-118.164,-23.926,-112.305,0
2023/07/18 15:40:26.408,1689709226.408000000,-215.332,-103.516,-112.305,-143.066,0
2023/07/18 15:40:26.411,1689709226.411000000,-49.316,-62.988,226.074,-113.281,0
2023/07/18 15:40:26.415,1689709226.415000000,49.805,-66.406,250,-26.367,0
2023/07/18 15:40:26.419,1689709226.419000000,-70.312,-66.895,202.637,-83.496,0
2023/07/18 15:40:26.423,1689709226.423000000,-165.527,-33.691,179.199,-130.371,0
2023/07/18 15:40:26.427,1689709226.427000000,0,0.977,236.816,-74.219,0
2023/07/18 15:40:26.431,1689709226.431000000,0,-6.836,269.531,-87.891,0
2023/07/18 15:40:26.435,1689709226.435000000,0,-37.109,232.422,-150.391,0
2023/07/18 15:40:26.439,1689709226.439000000,0,-36.621,221.68,-216.797,0
2023/07/18 15:40:26.443,1689709226.443000000,0,-25.879,177.734,-240.723,0
2023/07/18 15:40:26.447,1689709226.447000000,0,-21.484,178.711,-160.156,0
2023/07/18 15:40:26.450,1689709226.450000000,0,-23.926,50.293,-160.156,0
2023/07/18 15:40:26.454,1689709226.454000000,0,-5.859,67.871,-270.996,0
2023/07/18 15:40:26.458,1689709226.458000000,0,33.203,217.285,-339.355,0
2023/07/18 15:40:26.462,1689709226.462000000,0,39.062,180.664,-285.645,0
2023/07/18 15:40:26.466,1689709226.466000000,0,59.082,194.336,-245.117,0
2023/07/18 15:40:26.470,1689709226.470000000,0,90.332,173.828,-354.98,0
2023/07/18 15:40:26.474,1689709226.474000000,-45.41,115.723,117.188,-439.941,0
2023/07/18 15:40:26.478,1689709226.478000000,76.172,134.766,29.297,-405.762,0
2023/07/18 15:40:26.482,1689709226.482000000,-26.855,135.742,34.18,-353.516,0
2023/07/18 15:40:26.485,1689709226.485000000,-220.215,158.203,114.258,-363.77,0
2023/07/18 15:40:26.489,1689709226.489000000,-217.285,196.289,32.715,-441.895,0
2023/07/18 15:40:26.493,1689709226.493000000,-62.012,201.172,-6.836,-408.691,0
2023/07/18 15:40:26.497,1689709226.497000000,-68.848,208.984,78.125,-345.215,0
2023/07/18 15:40:26.501,1689709226.501000000,-237.793,222.168,113.77,-374.023,0
2023/07/18 15:40:26.505,1689709226.505000000,-332.52,210.449,134.277,-375,0
2023/07/18 15:40:26.509,1689709226.509000000,-198.73,178.223,75.684,-377.441,0
2023/07/18 15:40:26.513,1689709226.513000000,-98.145,156.738,135.742,-301.27,0
2023/07/18 15:40:26.517,1689709226.517000000,-287.109,156.25,311.035,-259.277,0
2023/07/18 15:40:26.521,1689709226.521000000,-246.582,127.93,229.492,-313.965,0
2023/07/18 15:40:26.525,1689709226.525000000,-315.43,104.98,193.848,-302.734,0
2023/07/18 15:40:26.528,1689709226.528000000,-150.879,100.098,293.945,-213.379,0
2023/07/18 15:40:26.532,1689709226.532000000,-35.645,89.355,339.844,-165.527,0
2023/07/18 15:40:26.536,1689709226.536000000,-151.367,65.918,229.004,-251.953,0
2023/07/18 15:40:26.540,1689709226.540000000,-237.793,31.738,96.191,-251.953,0
2023/07/18 15:40:26.544,1689709226.544000000,-145.996,60.059,159.668,-159.668,0
2023/07/18 15:40:26.548,1689709226.548000000,-14.16,98.145,262.207,-114.258,0
2023/07/18 15:40:26.552,1689709226.552000000,-48.828,85.449,103.516,-115.723,0
2023/07/18 15:40:26.556,1689709226.556000000,-199.707,61.523,-201.66,-154.297,0
2023/07/18 15:40:26.560,1689709226.560000000,-142.578,71.289,-5.859,-109.863,0
2023/07/18 15:40:26.563,1689709226.563000000,41.504,83.984,218.262,-40.527,0
2023/07/18 15:40:26.568,1689709226.568000000,24.902,62.988,85.938,-28.32,0
2023/07/18 15:40:26.571,1689709226.571000000,-164.551,47.363,14.16,-94.238,0
2023/07/18 15:40:26.575,1689709226.575000000,-184.57,61.523,88.867,-136.23,0
2023/07/18 15:40:26.579,1689709226.579000000,3.906,72.266,165.527,-40.527,0
2023/07/18 15:40:26.583,1689709226.583000000,60.547,56.152,108.398,3.906,0
2023/07/18 15:40:26.587,1689709226.587000000,-92.285,27.832,32.715,-43.945,0
2023/07/18 15:40:26.591,1689709226.591000000,-166.016,11.23,-0.977,-63.965,0
2023/07/18 15:40:26.595,1689709226.595000000,-11.719,21.484,120.605,-20.508,0
2023/07/18 15:40:26.599,1689709226.599000000,98.145,16.113,20.996,50.293,0
2023/07/18 15:40:26.603,1689709226.603000000,8.301,12.695,-87.402,41.504,0
2023/07/18 15:40:26.606,1689709226.606000000,-132.812,29.785,119.141,-46.875,0
2023/07/18 15:40:26.610,1689709226.610000000,-86.914,11.23,60.059,-44.434,0
2023/07/18 15:40:26.614,1689709226.614000000,67.871,-17.09,32.227,33.203,0
2023/07/18 15:40:26.618,1689709226.618000000,21.484,-25.391,31.25,0.977,0
2023/07/18 15:40:26.622,1689709226.622000000,-126.953,-22.949,4.395,-50.293,0
2023/07/18 15:40:26.626,1689709226.626000000,-89.355,-27.344,-18.555,-19.531,0
2023/07/18 15:40:26.630,1689709226.630000000,62.988,-25.391,23.438,36.621,0
2023/07/18 15:40:26.634,1689709226.634000000,80.566,-26.367,31.25,41.992,0
2023/07/18 15:40:26.638,1689709226.638000000,-62.012,-30.273,-6.836,-34.18,0
2023/07/18 15:40:26.642,1689709226.642000000,-100.586,-34.18,-33.691,-44.922,0
2023/07/18 15:40:26.646,1689709226.646000000,52.734,-40.527,-151.367,53.711,0
2023/07/18 15:40:26.649,1689709226.649000000,124.512,-22.949,57.129,88.379,0
2023/07/18 15:40:26.653,1689709226.653000000,-16.113,-25.879,145.02,-12.695,0
2023/07/18 15:40:26.657,1689709226.657000000,-128.418,-43.945,-15.137,-74.707,0
2023/07/18 15:40:26.661,1689709226.661000000,-0.488,-39.062,43.945,2.441,0
2023/07/18 15:40:26.665,1689709226.665000000,125.977,-17.09,227.539,77.637,0
2023/07/18 15:40:26.669,1689709226.669000000,25.879,-24.902,166.016,12.207,0
2023/07/18 15:40:26.673,1689709226.673000000,-106.445,-49.316,38.574,-61.523,0
2023/07/18 15:40:26.677,1689709226.677000000,-54.688,-47.852,127.441,4.395,0
2023/07/18 15:40:26.681,1689709226.681000000,85.938,-45.41,198.73,52.734,0
2023/07/18 15:40:26.685,1689709226.685000000,73.73,-50.293,198.242,0.977,0
2023/07/18 15:40:26.689,1689709226.689000000,-82.031,-73.242,-3.906,-62.5,0
2023/07/18 15:40:26.692,1689709226.692000000,-95.703,-71.777,-20.02,-39.551,0
2023/07/18 15:40:26.696,1689709226.696000000,56.641,-41.992,294.922,27.344,0
2023/07/18 15:40:26.700,1689709226.700000000,100.586,-54.688,250.977,25.391,0
2023/07/18 15:40:26.704,1689709226.704000000,-39.062,-77.637,177.246,-51.758,0
2023/07/18 15:40:26.708,1689709226.708000000,-124.023,-70.801,0,-81.055,0
2023/07/18 15:40:26.712,1689709226.712000000,18.066,-63.965,0,7.324,0
2023/07/18 15:40:26.716,1689709226.716000000,112.305,-72.266,0,38.086,0
2023/07/18 15:40:26.720,1689709226.720000000,1.465,-77.148,0,-18.555,0
2023/07/18 15:40:26.724,1689709226.724000000,-103.027,-78.125,0,-49.316,0
2023/07/18 15:40:26.728,1689709226.728000000,-15.625,-78.613,0,-26.367,0
2023/07/18 15:40:26.731,1689709226.731000000,125,-77.637,0,47.852,0
2023/07/18 15:40:26.735,1689709226.735000000,36.133,-84.961,0,40.039,0
2023/07/18 15:40:26.739,1689709226.739000000,-123.535,-78.125,0,-81.543,0
2023/07/18 15:40:26.743,1689709226.743000000,-57.617,-72.754,0,-57.129,0
2023/07/18 15:40:26.747,1689709226.747000000,98.145,-78.125,0,36.621,0
2023/07/18 15:40:26.751,1689709226.751000000,55.176,-71.777,0,20.508,0
2023/07/18 15:40:26.755,1689709226.755000000,-113.77,-69.336,349.121,-52.246,0
2023/07/18 15:40:26.759,1689709226.759000000,-139.648,-66.406,368.652,-82.031,0
2023/07/18 15:40:26.763,1689709226.763000000,-9.766,-60.547,375,-20.508,0
2023/07/18 15:40:26.767,1689709226.767000000,21.973,-50.781,456.055,-10.254,0
2023/07/18 15:40:26.771,1689709226.771000000,-117.676,-46.387,486.328,-90.332,0
2023/07/18 15:40:26.774,1689709226.774000000,-202.637,-49.316,469.238,-122.07,0
2023/07/18 15:40:26.778,1689709226.778000000,-74.219,-57.617,403.809,-33.691,0
2023/07/18 15:40:26.782,1689709226.782000000,45.41,-61.035,447.266,8.789,0
2023/07/18 15:40:26.786,1689709226.786000000,-77.148,-43.457,560.059,-88.867,0
2023/07/18 15:40:26.790,1689709226.790000000,-243.164,-42.969,512.695,-139.16,0
2023/07/18 15:40:26.794,1689709226.794000000,-162.109,-46.875,519.531,-53.711,0
2023/07/18 15:40:26.798,1689709226.798000000,18.066,-41.992,545.898,6.836,0
2023/07/18 15:40:26.802,1689709226.802000000,-19.043,-41.992,550.293,-26.855,0
2023/07/18 15:40:26.806,1689709226.806000000,-164.551,-60.059,448.242,-98.145,0
2023/07/18 15:40:26.810,1689709226.810000000,-133.301,-67.871,419.434,-88.867,0
2023/07/18 15:40:26.813,1689709226.813000000,15.625,-56.152,500,1.465,0
2023/07/18 15:40:26.817,1689709226.817000000,21.973,-49.316,463.867,-15.625,0
2023/07/18 15:40:26.821,1689709226.821000000,-127.93,-53.711,408.203,-96.68,0
2023/07/18 15:40:26.825,1689709226.825000000,-145.996,-62.012,328.125,-81.543,0
2023/07/18 15:40:26.829,1689709226.829000000,-2.93,-35.156,443.359,-14.648,0
2023/07/18 15:40:26.833,1689709226.833000000,67.383,-17.09,546.387,-14.16,0
2023/07/18 15:40:26.837,1689709226.837000000,-40.527,-32.227,469.727,-76.172,0
2023/07/18 15:40:26.841,1689709226.841000000,-158.203,-26.855,477.051,-102.539,0
2023/07/18 15:40:26.845,1689709226.845000000,-68.359,-9.277,549.805,-54.688,0
2023/07/18 15:40:26.849,1689709226.849000000,71.289,-5.371,600.586,2.93,0
2023/07/18 15:40:26.853,1689709226.853000000,-15.137,-28.809,494.629,-47.852,0
2023/07/18 15:40:26.856,1689709226.856000000,-169.922,-38.086,470.703,-117.188,0
2023/07/18 15:40:26.860,1689709226.860000000,-87.402,-32.227,574.707,-57.617,0
2023/07/18 15:40:26.864,1689709226.864000000,64.941,-142.09,590.332,12.695,0
2023/07/18 15:40:26.868,1689709226.868000000,-7.812,-247.07,487.793,-13.672,0
2023/07/18 15:40:26.872,1689709226.872000000,-160.645,-260.742,458.496,-104.492,0
2023/07/18 15:40:26.876,1689709226.876000000,-133.789,-241.699,537.598,-92.773,0
2023/07/18 15:40:26.880,1689709226.880000000,24.414,-209.473,554.199,22.949,0
2023/07/18 15:40:26.884,1689709226.884000000,50.293,-214.844,569.336,38.086,0
2023/07/18 15:40:26.888,1689709226.888000000,-89.355,-205.078,510.742,-68.359,0
2023/07/18 15:40:26.892,1689709226.892000000,-159.668,-198.73,423.828,-107.422,0
2023/07/18 15:40:26.896,1689709226.896000000,0,-215.82,466.309,-22.949,0
2023/07/18 15:40:26.899,1689709226.899000000,0,-178.223,529.785,9.766,0
2023/07/18 15:40:26.903,1689709226.903000000,0,-105.469,501.953,-29.785,0
2023/07/18 15:40:26.907,1689709226.907000000,0,-71.289,477.051,-43.945,0
2023/07/18 15:40:26.911,1689709226.911000000,0,-86.426,492.676,3.418,0
2023/07/18 15:40:26.915,1689709226.915000000,0,-99.609,490.723,49.805,0
2023/07/18 15:40:26.919,1689709226.919000000,0,-123.047,497.559,-8.789,0
2023/07/18 15:40:26.923,1689709226.923000000,0,-153.32,512.695,-75.195,0
2023/07/18 15:40:26.927,1689709226.927000000,0,-177.246,478.027,-43.457,0
2023/07/18 15:40:26.931,1689709226.931000000,0,-185.059,469.238,47.363,0
2023/07/18 15:40:26.935,1689709226.935000000,0,-162.109,509.277,7.812,0
2023/07/18 15:40:26.938,1689709226.938000000,0,-169.434,482.422,-91.797,0
2023/07/18 15:40:26.942,1689709226.942000000,-70.312,-178.223,407.715,-39.062,0
2023/07/18 15:40:26.946,1689709226.946000000,86.426,-175.781,423.828,45.41,0
2023/07/18 15:40:26.950,1689709226.950000000,122.07,-167.48,460.449,29.785,0
2023/07/18 15:40:26.954,1689709226.954000000,-43.945,-160.645,355.469,-60.547,0
2023/07/18 15:40:26.958,1689709226.958000000,-109.863,-172.852,204.59,-70.312,0
2023/07/18 15:40:26.962,1689709226.962000000,46.875,-165.039,174.316,23.926,0
2023/07/18 15:40:26.966,1689709226.966000000,147.949,-143.555,179.199,45.41,0
2023/07/18 15:40:26.970,1689709226.970000000,45.41,-144.043,136.719,-11.23,0
2023/07/18 15:40:26.974,1689709226.974000000,-71.777,-161.621,-123.535,-58.594,0
2023/07/18 15:40:26.978,1689709226.978000000,25.391,-151.855,-127.93,3.906,0
2023/07/18 15:40:26.981,1689709226.981000000,179.688,-116.699,219.727,54.688,0
2023/07/18 15:40:26.985,1689709226.985000000,138.672,-113.281,154.785,13.184,0
2023/07/18 15:40:26.989,1689709226.989000000,-1.465,-124.512,78.613,-45.898,0
2023/07/18 15:40:26.993,1689709226.993000000,-2.93,-124.023,128.906,-44.922,0
2023/07/18 15:40:26.997,1689709226.997000000,148.438,-111.816,180.664,21.973,0
2023/07/18 15:40:27.001,1689709227.001000000,153.809,-119.141,141.113,24.414,0
2023/07/18 15:40:27.005,1689709227.005000000,-11.719,-127.93,22.461,-35.645,0
2023/07/18 15:40:27.009,1689709227.009000000,-35.156,-118.652,-6.836,-40.039,0
2023/07/18 15:40:27.013,1689709227.013000000,101.562,-99.121,115.723,26.367,0
2023/07/18 15:40:27.017,1689709227.017000000,143.555,-92.773,159.668,38.574,0
2023/07/18 15:40:27.021,1689709227.021000000,9.277,-98.145,-159.18,-8.789,0
2023/07/18 15:40:27.024,1689709227.024000000,-80.078,-50.293,-109.863,-57.129,0
2023/07/18 15:40:27.028,1689709227.028000000,26.855,3.906,154.785,-13.672,0
2023/07/18 15:40:27.032,1689709227.032000000,133.301,-35.156,30.762,40.039,0
2023/07/18 15:40:27.036,1689709227.036000000,41.992,-94.238,-55.664,-28.809,0
2023/07/18 15:40:27.040,1689709227.040000000,-104.98,-93.75,-80.566,-88.379,0
2023/07/18 15:40:27.044,1689709227.044000000,-37.109,-100.098,-73.242,-47.852,0
2023/07/18 15:40:27.048,1689709227.048000000,117.676,-104.004,-18.555,49.316,0
2023/07/18 15:40:27.052,1689709227.052000000,78.613,-103.516,-112.793,0.488,0
2023/07/18 15:40:27.056,1689709227.056000000,-66.406,-113.281,-301.758,-120.117,0
2023/07/18 15:40:27.060,1689709227.060000000,-64.453,-105.957,-307.617,-67.383,0
2023/07/18 15:40:27.063,1689709227.063000000,73.242,-105.957,-338.379,40.039,0
2023/07/18 15:40:27.067,1689709227.067000000,87.402,-103.516,-364.258,27.832,0
2023/07/18 15:40:27.071,1689709227.071000000,-67.871,-87.402,-287.109,-86.426,0
2023/07/18 15:40:27.075,1689709227.075000000,-113.77,-97.656,-402.344,-105.957,0
2023/07/18 15:40:27.079,1689709227.079000000,44.434,-104.492,-446.289,-7.324,0
2023/07/18 15:40:27.083,1689709227.083000000,0,-89.844,-364.258,38.574,0
2023/07/18 15:40:27.087,1689709227.087000000,0,-83.984,-400.391,-20.996,0
2023/07/18 15:40:27.091,1689709227.091000000,0,-92.285,-488.281,-98.633,0
2023/07/18 15:40:27.095,1689709227.095000000,0,-90.82,-426.27,-12.207,0
2023/07/18 15:40:27.099,1689709227.099000000,0,-79.102,-328.613,44.922,0
2023/07/18 15:40:27.103,1689709227.103000000,0,-88.867,-423.34,-52.246,0
2023/07/18 15:40:27.106,1689709227.106000000,0,-107.422,-582.52,-97.168,0
2023/07/18 15:40:27.110,1689709227.110000000,0,-118.164,-637.207,-42.969,0
2023/07/18 15:40:27.114,1689709227.114000000,0,-112.305,-541.504,3.906,0
2023/07/18 15:40:27.118,1689709227.118000000,0,-104.492,-586.914,2.93,0
2023/07/18 15:40:27.122,1689709227.122000000,0,-107.422,-750.977,-45.898,0
2023/07/18 15:40:27.126,1689709227.126000000,0,-104.004,-765.137,-73.73,0
2023/07/18 15:40:27.130,1689709227.130000000,26.855,-89.355,-628.906,8.301,0
2023/07/18 15:40:27.134,1689709227.134000000,41.504,-77.148,-631.348,20.02,0
2023/07/18 15:40:27.138,1689709227.138000000,-117.676,-83.496,-701.172,-51.758,0
2023/07/18 15:40:27.142,1689709227.142000000,-171.875,-91.797,-697.266,-66.406,0
2023/07/18 15:40:27.145,1689709227.145000000,-35.645,-84.473,-626.465,-13.672,0
2023/07/18 15:40:27.149,1689709227.149000000,63.477,-84.961,-595.703,-2.441,0
2023/07/18 15:40:27.153,1689709227.153000000,-66.895,-100.098,-721.191,-63.477,0
2023/07/18 15:40:27.157,1689709227.157000000,-201.66,-105.957,-791.016,-107.91,0
2023/07/18 15:40:27.161,1689709227.161000000,-69.824,-75.195,-547.363,-71.289,0
2023/07/18 15:40:27.165,1689709227.165000000,62.988,-66.406,-445.312,-30.762,0
2023/07/18 15:40:27.169,1689709227.169000000,-26.855,-83.984,-520.996,-70.312,0
2023/07/18 15:40:27.173,1689709227.173000000,-136.719,-83.008,-577.637,-106.445,0
2023/07/18 15:40:27.177,1689709227.177000000,-68.848,-75.684,-530.273,-33.691,0
2023/07/18 15:40:27.181,1689709227.181000000,56.641,-80.078,-524.414,24.414,0
2023/07/18 15:40:27.185,1689709227.185000000,30.273,-79.59,-580.566,-26.367,0
2023/07/18 15:40:27.188,1689709227.188000000,-130.859,-76.172,-652.832,-82.031,0
2023/07/18 15:40:27.192,1689709227.192000000,-134.277,-76.172,-709.473,-53.711,0
2023/07/18 15:40:27.196,1689709227.196000000,54.199,-62.988,-745.605,42.969,0
2023/07/18 15:40:27.200,1689709227.200000000,93.262,-32.227,-787.109,79.59,0
2023/07/18 15:40:27.204,1689709227.204000000,-62.012,7.812,-800.781,-35.156,0
2023/07/18 15:40:27.208,1689709227.208000000,-137.207,-16.602,-829.59,-73.73,0
2023/07/18 15:40:27.212,1689709227.212000000,4.883,-69.824,-871.582,36.133,0
2023/07/18 15:40:27.216,1689709227.216000000,98.145,-75.684,-875,74.707,0
2023/07/18 15:40:27.220,1689709227.220000000,-27.832,-79.102,-833.984,-29.785,0
2023/07/18 15:40:27.224,1689709227.224000000,-135.742,-87.402,-870.605,-98.145,0
2023/07/18 15:40:27.227,1689709227.227000000,-41.504,-87.891,-868.164,-36.621,0
2023/07/18 15:40:27.231,1689709227.231000000,72.754,-74.707,-804.199,9.277,0
2023/07/18 15:40:27.235,1689709227.235000000,20.02,-62.5,-793.457,-23.438,0
2023/07/18 15:40:27.239,1689709227.239000000,-118.652,-64.941,-837.402,-75.684,0
2023/07/18 15:40:27.243,1689709227.243000000,-90.332,-80.078,-895.508,-44.922,0
2023/07/18 15:40:27.247,1689709227.247000000,54.688,-76.66,-847.168,30.273,0
2023/07/18 15:40:27.251,1689709227.251000000,44.434,-49.316,-722.168,9.766,0
2023/07/18 15:40:27.255,1689709227.255000000,-89.355,-50.293,-768.066,-75.195,0
2023/07/18 15:40:27.259,1689709227.259000000,-128.418,-66.406,-826.172,-77.637,0
2023/07/18 15:40:27.262,1689709227.262000000,20.02,-60.547,-751.953,2.441,0
2023/07/18 15:40:27.266,1689709227.266000000,75.684,-52.734,-726.562,44.434,0
2023/07/18 15:40:27.270,1689709227.270000000,-78.613,-68.359,-801.758,4.883,0
2023/07/18 15:40:27.274,1689709227.274000000,-169.922,-74.219,-851.562,-84.961,0
2023/07/18 15:40:27.278,1689709227.278000000,-10.742,-56.641,-811.035,-98.633,0
2023/07/18 15:40:27.282,1689709227.282000000,132.812,-47.852,-793.945,-42.48,0
2023/07/18 15:40:27.286,1689709227.286000000,-8.301,-49.805,-849.121,-70.801,0
2023/07/18 15:40:27.290,1689709227.290000000,-155.762,-46.875,-891.602,-115.234,0
2023/07/18 15:40:27.294,1689709227.294000000,-71.289,-43.457,-853.027,-51.758,0
2023/07/18 15:40:27.298,1689709227.298000000,59.57,-29.297,-774.414,18.066,0
2023/07/18 15:40:27.302,1689709227.302000000,22.461,-31.738,-841.309,-10.254,0
2023/07/18 15:40:27.305,1689709227.305000000,-116.699,-42.48,-920.898,-75.195,0
2023/07/18 15:40:27.309,1689709227.309000000,-96.68,-30.273,-831.055,-50.293,0
2023/07/18 15:40:27.313,1689709227.313000000,75.195,-20.02,-725.098,22.461,0
2023/07/18 15:40:27.317,1689709227.317000000,100.586,-28.809,-730.957,-11.719,0
2023/07/18 15:40:27.321,1689709227.321000000,-44.922,-21.973,-759.277,-98.633,0
2023/07/18 15:40:27.325,1689709227.325000000,-92.285,-2.441,-666.992,-125.977,0
2023/07/18 15:40:27.329,1689709227.329000000,46.387,-4.395,-546.875,-24.414,0
2023/07/18 15:40:27.333,1689709227.333000000,118.652,-8.789,-556.152,50.293,0
2023/07/18 15:40:27.337,1689709227.337000000,-20.508,26.855,-640.137,-19.043,0
2023/07/18 15:40:27.341,1689709227.341000000,-112.305,64.453,-635.742,-90.82,0
2023/07/18 15:40:27.345,1689709227.345000000,20.508,85.449,-579.102,-35.645,0
2023/07/18 15:40:27.348,1689709227.348000000,135.254,55.176,-661.133,50.781,0
2023/07/18 15:40:27.352,1689709227.352000000,38.086,-22.461,-679.688,-13.672,0
2023/07/18 15:40:27.356,1689709227.356000000,-85.938,-46.387,-578.125,-132.324,0
2023/07/18 15:40:27.360,1689709227.360000000,-41.016,-59.57,-649.902,-86.914,0
2023/07/18 15:40:27.364,1689709227.364000000,0,-62.988,-560.547,18.555,0
2023/07/18 15:40:27.368,1689709227.368000000,0,-60.547,-505.371,-18.066,0
2023/07/18 15:40:27.372,1689709227.372000000,0,-62.5,-577.637,-111.816,0
2023/07/18 15:40:27.376,1689709227.376000000,0,-62.5,-585.449,-95.215,0
2023/07/18 15:40:27.380,1689709227.380000000,0,-62.988,-503.418,-20.508,0
2023/07/18 15:40:27.384,1689709227.384000000,0,-73.242,-469.238,-34.668,0
2023/07/18 15:40:27.388,1689709227.388000000,0,-59.082,-440.918,-102.539,0
2023/07/18 15:40:27.391,1689709227.391000000,0,-56.641,-467.285,-106.934,0
2023/07/18 15:40:27.395,1689709227.395000000,0,-75.684,-475.586,-23.926,0
2023/07/18 15:40:27.399,1689709227.399000000,0,-45.898,-250.977,0.977,0
2023/07/18 15:40:27.403,1689709227.403000000,0,-28.32,-207.52,-64.941,0
2023/07/18 15:40:27.407,1689709227.407000000,0,-35.156,-379.395,-116.211,0
2023/07/18 15:40:27.411,1689709227.411000000,10.254,-22.461,-358.398,-34.668,0
2023/07/18 15:40:27.415,1689709227.415000000,148.438,-4.883,-168.457,5.371,0
2023/07/18 15:40:27.419,1689709227.419000000,66.406,-2.93,-224.121,-44.922,0
2023/07/18 15:40:27.423,1689709227.423000000,-81.055,-14.16,-331.543,-83.496,0
2023/07/18 15:40:27.427,1689709227.427000000,-33.691,-12.207,-358.887,-74.219,0
2023/07/18 15:40:27.431,1689709227.431000000,111.328,-11.719,-370.605,-11.23,0
2023/07/18 15:40:27.434,1689709227.434000000,83.008,-10.254,-363.281,-19.531,0
2023/07/18 15:40:27.438,1689709227.438000000,-63.477,-24.414,-599.609,-84.473,0
2023/07/18 15:40:27.442,1689709227.442000000,-96.68,-20.02,-644.531,-95.703,0
2023/07/18 15:40:27.446,1689709227.446000000,52.246,18.555,-380.859,-29.297,0
2023/07/18 15:40:27.450,1689709227.450000000,111.328,11.23,-447.266,-7.324,0
2023/07/18 15:40:27.454,1689709227.454000000,-32.227,-0.977,-540.527,-97.656,0
2023/07/18 15:40:27.458,1689709227.458000000,-115.234,3.906,-520.02,-123.047,0
2023/07/18 15:40:27.462,1689709227.462000000,15.625,7.324,-453.125,-36.133,0
2023/07/18 15:40:27.466,1689709227.466000000,121.582,-3.418,-441.406,5.371,0
2023/07/18 15:40:27.470,1689709227.470000000,35.645,-12.695,-479.492,-57.129,0
2023/07/18 15:40:27.474,1689709227.474000000,-113.77,-10.742,-498.047,-137.695,0
2023/07/18 15:40:27.477,1689709227.477000000,-74.707,-17.578,-529.785,-90.82,0
2023/07/18 15:40:27.481,1689709227.481000000,75.684,-13.672,-524.414,1.953,0
2023/07/18 15:40:27.485,1689709227.485000000,36.621,-13.672,-586.914,-26.367,0
2023/07/18 15:40:27.489,1689709227.489000000,-114.258,0.977,-553.711,-110.84,0
2023/07/18 15:40:27.493,1689709227.493000000,-104.004,11.719,-513.184,-89.844,0
2023/07/18 15:40:27.497,1689709227.497000000,62.988,5.859,-595.703,2.441,0
2023/07/18 15:40:27.501,1689709227.501000000,68.848,3.418,-639.16,20.02,0
2023/07/18 15:40:27.505,1689709227.505000000,-103.516,-5.371,-667.969,-80.078,0
2023/07/18 15:40:27.509,1689709227.509000000,-131.348,-10.742,-751.953,-111.328,0
2023/07/18 15:40:27.513,1689709227.513000000,17.09,-5.371,-707.52,-15.625,0
2023/07/18 15:40:27.516,1689709227.516000000,73.73,7.324,-653.32,-7.812,0
2023/07/18 15:40:27.520,1689709227.520000000,-52.734,3.906,-720.215,-83.984,0
2023/07/18 15:40:27.524,1689709227.524000000,-147.949,-9.277,-798.34,-111.816,0
2023/07/18 15:40:27.528,1689709227.528000000,-46.875,-22.461,-840.332,-2.441,0
2023/07/18 15:40:27.532,1689709227.532000000,74.219,-14.16,-826.172,76.66,0
2023/07/18 15:40:27.536,1689709227.536000000,-22.461,7.812,-716.797,-31.738,0
2023/07/18 15:40:27.540,1689709227.540000000,-170.41,-12.207,-813.965,-107.91,0
2023/07/18 15:40:27.544,1689709227.544000000,-90.82,-26.855,-838.867,-41.504,0
2023/07/18 15:40:27.548,1689709227.548000000,49.805,-16.602,-726.562,38.086,0
2023/07/18 15:40:27.552,1689709227.552000000,-4.395,-9.766,-726.562,10.742,0
2023/07/18 15:40:27.555,1689709227.555000000,-153.809,-19.043,-796.875,-86.914,0
2023/07/18 15:40:27.559,1689709227.559000000,-159.18,-18.555,-816.406,-88.867,0
2023/07/18 15:40:27.563,1689709227.563000000,-10.254,-6.836,-734.863,10.742,0
2023/07/18 15:40:27.567,1689709227.567000000,26.367,-4.395,-699.707,-2.93,0
2023/07/18 15:40:27.571,1689709227.571000000,-112.793,-14.16,-816.406,-113.281,0
2023/07/18 15:40:27.575,1689709227.575000000,-170.898,-11.719,-835.938,-124.023,0
2023/07/18 15:40:27.579,1689709227.579000000,-52.246,31.738,-678.223,-26.367,0
2023/07/18 15:40:27.583,1689709227.583000000,33.203,52.734,-614.258,21.484,0
2023/07/18 15:40:27.587,1689709227.587000000,-82.031,24.902,-750.977,-50.781,0
2023/07/18 15:40:27.591,1689709227.591000000,-175.293,0.977,-791.992,-118.652,0
2023/07/18 15:40:27.594,1689709227.594000000,-82.031,1.465,-660.645,-71.777,0
2023/07/18 15:40:27.598,1689709227.598000000,45.41,17.578,-605.469,3.906,0
2023/07/18 15:40:27.602,1689709227.602000000,-28.32,-3.906,-675.781,-8.789,0
2023/07/18 15:40:27.606,1689709227.606000000,-179.199,-21.973,-744.141,-96.68,0
2023/07/18 15:40:27.610,1689709227.610000000,-89.355,30.762,-681.641,-90.82,0
2023/07/18 15:40:27.614,1689709227.614000000,58.594,21.484,-641.602,6.836,0
2023/07/18 15:40:27.618,1689709227.618000000,7.324,-50.781,-750.488,-5.859,0
2023/07/18 15:40:27.622,1689709227.622000000,-157.715,-62.5,-789.551,-90.332,0
2023/07/18 15:40:27.626,1689709227.626000000,-161.621,-44.922,-709.961,-98.633,0
2023/07/18 15:40:27.630,1689709227.630000000,14.16,-37.598,-659.18,-17.09,0
2023/07/18 15:40:27.633,1689709227.633000000,55.176,-34.18,-620.605,4.883,0
2023/07/18 15:40:27.637,1689709227.637000000,-104.004,-29.785,-630.371,-83.984,0
2023/07/18 15:40:27.641,1689709227.641000000,-162.109,-17.09,-593.262,-90.332,0
2023/07/18 15:40:27.645,1689709227.645000000,-20.508,11.719,-560.059,-4.883,0
2023/07/18 15:40:27.649,1689709227.649000000,67.383,13.672,-553.711,-3.906,0
2023/07/18 15:40:27.653,1689709227.653000000,-62.012,-17.578,-563.477,-81.543,0
2023/07/18 15:40:27.657,1689709227.657000000,-176.27,-26.367,-587.891,-148.926,0
2023/07/18 15:40:27.661,1689709227.661000000,-57.617,-26.367,-575.684,-81.543,0
2023/07/18 15:40:27.665,1689709227.665000000,58.105,-32.715,-550.293,12.207,0
2023/07/18 15:40:27.669,1689709227.669000000,-14.648,-31.25,-516.113,-63.965,0
2023/07/18 15:40:27.673,1689709227.673000000,-151.367,-33.203,-557.617,-138.672,0
2023/07/18 15:40:27.676,1689709227.676000000,-118.652,-42.969,-587.891,-91.309,0
2023/07/18 15:40:27.680,1689709227.680000000,51.27,-36.133,-505.371,5.371,0
2023/07/18 15:40:27.684,1689709227.684000000,46.387,-17.09,-396.973,-18.555,0
2023/07/18 15:40:27.688,1689709227.688000000,-114.258,-20.996,-453.613,-117.676,0
2023/07/18 15:40:27.692,1689709227.692000000,-125,-36.133,-549.805,-90.332,0
2023/07/18 15:40:27.696,1689709227.696000000,35.156,-29.297,-479.98,-5.859,0
2023/07/18 15:40:27.700,1689709227.700000000,64.453,-17.09,-359.375,-16.602,0
2023/07/18 15:40:27.704,1689709227.704000000,-90.332,-21.484,-429.688,-87.402,0
2023/07/18 15:40:27.708,1689709227.708000000,-148.926,-38.086,-520.02,-110.352,0
2023/07/18 15:40:27.712,1689709227.712000000,-23.438,-35.645,-490.234,-25.879,0
2023/07/18 15:40:27.716,1689709227.716000000,66.406,-25.391,-418.945,21.484,0
2023/07/18 15:40:27.720,1689709227.720000000,-20.02,-30.762,-398.926,-41.504,0
2023/07/18 15:40:27.723,1689709227.723000000,-123.047,-46.387,-592.285,-77.637,0
2023/07/18 15:40:27.727,1689709227.727000000,-28.32,-43.457,-628.418,-19.531,0
2023/07/18 15:40:27.731,1689709227.731000000,70.312,-31.738,-365.723,12.695,0
2023/07/18 15:40:27.735,1689709227.735000000,-27.344,-44.434,-393.066,-34.18,0
2023/07/18 15:40:27.739,1689709227.739000000,-169.922,-54.199,-527.832,-123.047,0
2023/07/18 15:40:27.743,1689709227.743000000,-121.094,-53.711,-443.848,-94.238,0
2023/07/18 15:40:27.747,1689709227.747000000,43.457,-46.875,-344.727,23.438,0
2023/07/18 15:40:27.751,1689709227.751000000,47.363,-49.316,-365.723,23.438,0
2023/07/18 15:40:27.755,1689709227.755000000,-108.887,-59.082,-495.117,-96.68,0
2023/07/18 15:40:27.759,1689709227.759000000,-141.113,-61.523,-537.109,-125.977,0
2023/07/18 15:40:27.763,1689709227.763000000,18.066,-49.316,-395.02,-45.41,0
2023/07/18 15:40:27.766,1689709227.766000000,99.121,-48.828,-397.461,-9.277,0
2023/07/18 15:40:27.770,1689709227.770000000,-43.945,-66.406,-479.98,-61.035,0
2023/07/18 15:40:27.774,1689709227.774000000,-153.809,-61.035,-424.805,-107.91,0
2023/07/18 15:40:27.778,1689709227.778000000,-51.27,-47.363,-361.328,-55.664,0
2023/07/18 15:40:27.782,1689709227.782000000,66.895,-51.27,-465.332,22.949,0
2023/07/18 15:40:27.786,1689709227.786000000,-30.273,-21.973,-592.285,-28.32,0
2023/07/18 15:40:27.790,1689709227.790000000,-171.387,18.066,-431.152,-124.023,0
2023/07/18 15:40:27.794,1689709227.794000000,-87.891,-9.277,-369.141,-76.172,0
2023/07/18 15:40:27.798,1689709227.798000000,73.73,-28.809,-337.402,29.297,0
2023/07/18 15:40:27.802,1689709227.802000000,39.062,-14.16,-357.422,12.207,0
2023/07/18 15:40:27.806,1689709227.806000000,-126.465,-11.719,-478.027,-98.145,0
2023/07/18 15:40:27.809,1689709227.809000000,-139.648,14.16,-435.547,-83.984,0
2023/07/18 15:40:27.813,1689709227.813000000,16.113,38.574,-492.188,40.039,0
2023/07/18 15:40:27.817,1689709227.817000000,32.715,44.434,-501.953,44.434,0
2023/07/18 15:40:27.821,1689709227.821000000,-142.09,67.871,-347.656,-71.777,0
2023/07/18 15:40:27.825,1689709227.825000000,-203.613,68.848,-407.227,-116.699,0
2023/07/18 15:40:27.829,1689709227.829000000,-69.336,-0.977,-372.07,-40.527,0
2023/07/18 15:40:27.833,1689709227.833000000,24.902,-70.312,-264.16,8.789,0
2023/07/18 15:40:27.837,1689709227.837000000,-94.727,-77.637,-274.902,-63.477,0
2023/07/18 15:40:27.841,1689709227.841000000,-218.262,-89.844,-387.695,-112.793,0
2023/07/18 15:40:27.845,1689709227.845000000,-104.98,-83.008,-367.676,-39.551,0
2023/07/18 15:40:27.849,1689709227.849000000,11.719,-65.918,-290.527,26.367,0
2023/07/18 15:40:27.852,1689709227.852000000,-87.891,-70.801,-375,-26.855,0
2023/07/18 15:40:27.856,1689709227.856000000,-229.98,-69.824,-458.984,-104.98,0
2023/07/18 15:40:27.860,1689709227.860000000,-166.992,-63.477,-466.797,-51.758,0
2023/07/18 15:40:27.864,1689709227.864000000,-16.602,-30.273,-268.555,29.297,0
2023/07/18 15:40:27.868,1689709227.868000000,-49.316,-20.508,-205.566,-30.273,0
2023/07/18 15:40:27.872,1689709227.872000000,-188.477,-24.414,-384.766,-110.84,0
2023/07/18 15:40:27.876,1689709227.876000000,-200.684,-14.648,-403.32,-97.168,0
2023/07/18 15:40:27.880,1689709227.880000000,-49.805,-16.113,-222.168,-24.414,0
2023/07/18 15:40:27.884,1689709227.884000000,-6.836,-24.414,-256.348,-13.672,0
2023/07/18 15:40:27.888,1689709227.888000000,-150.391,-35.645,-406.25,-82.031,0
2023/07/18 15:40:27.892,1689709227.892000000,-216.797,-28.32,-401.855,-106.934,0
2023/07/18 15:40:27.895,1689709227.895000000,-113.281,-16.602,-321.777,-53.711,0
2023/07/18 15:40:27.899,1689709227.899000000,-23.438,6.836,-332.031,-21.973,0
2023/07/18 15:40:27.903,1689709227.903000000,-128.418,-2.441,-546.875,-62.012,0
2023/07/18 15:40:27.907,1689709227.907000000,-263.672,-41.504,-651.855,-83.008,0
2023/07/18 15:40:27.911,1689709227.911000000,-174.316,-17.578,-412.598,-39.551,0
2023/07/18 15:40:27.915,1689709227.915000000,-33.203,-4.883,-321.777,-7.812,0
2023/07/18 15:40:27.919,1689709227.919000000,-85.449,-20.996,-358.887,-27.832,0
2023/07/18 15:40:27.923,1689709227.923000000,-220.215,-21.484,-380.371,-112.793,0
2023/07/18 15:40:27.927,1689709227.927000000,-177.246,-19.043,-313.477,-100.098,0
2023/07/18 15:40:27.931,1689709227.931000000,-30.762,-31.738,-223.145,-10.254,0
2023/07/18 15:40:27.934,1689709227.934000000,-44.922,-33.691,-217.773,-14.648,0
2023/07/18 15:40:27.938,1689709227.938000000,-201.66,-23.926,-212.402,-83.008,0
2023/07/18 15:40:27.942,1689709227.942000000,-229.492,-29.785,-240.723,-90.82,0
2023/07/18 15:40:27.946,1689709227.946000000,-81.055,-38.086,-234.863,-8.301,0
2023/07/18 15:40:27.950,1689709227.950000000,4.395,-39.551,-184.57,15.625,0
2023/07/18 15:40:27.954,1689709227.954000000,-138.184,-42.48,-202.148,-55.176,0
2023/07/18 15:40:27.958,1689709227.958000000,-233.887,-33.203,-199.219,-109.863,0
2023/07/18 15:40:27.962,1689709227.962000000,-95.703,-33.691,-227.051,-56.641,0
2023/07/18 15:40:27.966,1689709227.966000000,20.508,-46.387,-289.062,-2.441,0
2023/07/18 15:40:27.970,1689709227.970000000,-68.848,-32.715,-181.152,-58.105,0
2023/07/18 15:40:27.974,1689709227.974000000,-210.938,-32.227,-208.984,-96.68,0
2023/07/18 15:40:27.977,1689709227.977000000,-152.344,-39.062,-303.711,-54.688,0
2023/07/18 15:40:27.981,1689709227.981000000,5.371,-29.785,-262.695,3.906,0
2023/07/18 15:40:27.985,1689709227.985000000,-30.273,-25.879,-211.426,-13.184,0
2023/07/18 15:40:27.989,1689709227.989000000,-169.434,-35.645,-302.246,-116.211,0
2023/07/18 15:40:27.993,1689709227.993000000,-151.367,-42.969,-437.5,-79.102,0
2023/07/18 15:40:27.997,1689709227.997000000,0.977,-30.273,-399.414,3.906,0
2023/07/18 15:40:28.001,1689709228.001000000,30.273,-9.277,-211.914,-24.902,0
2023/07/18 15:40:28.005,1689709228.005000000,-126.953,-15.625,-233.887,-120.117,0
2023/07/18 15:40:28.009,1689709228.009000000,-178.223,-37.598,-330.078,-120.117,0
2023/07/18 15:40:28.012,1689709228.012000000,-36.621,-37.598,-142.09,-36.133,0
2023/07/18 15:40:28.016,1689709228.016000000,22.949,-27.832,46.387,6.348,0
2023/07/18 15:40:28.020,1689709228.020000000,-105.957,-40.039,-22.461,-50.293,0
2023/07/18 15:40:28.024,1689709228.024000000,-195.801,-46.387,-187.988,-116.211,0
2023/07/18 15:40:28.028,1689709228.028000000,-71.777,-35.645,-89.844,-48.34,0
2023/07/18 15:40:28.032,1689709228.032000000,71.289,-25.391,103.027,7.324,0
2023/07/18 15:40:28.036,1689709228.036000000,2.93,-39.062,-5.371,-58.594,0
2023/07/18 15:40:28.040,1689709228.040000000,-144.043,-56.152,-253.418,-121.582,0
2023/07/18 15:40:28.044,1689709228.044000000,-96.191,-47.363,-248.535,-83.008,0
2023/07/18 15:40:28.048,1689709228.048000000,62.988,-41.016,8.789,-15.137,0
2023/07/18 15:40:28.052,1689709228.052000000,41.992,-53.223,-35.156,-26.367,0
2023/07/18 15:40:28.055,1689709228.055000000,-126.465,-49.316,-306.152,-95.215,0
2023/07/18 15:40:28.059,1689709228.059000000,-123.047,-3.906,-203.125,-98.633,0
2023/07/18 15:40:28.063,1689709228.063000000,57.617,12.207,3.906,20.996,0
2023/07/18 15:40:28.067,1689709228.067000000,85.938,-11.23,-38.086,41.992,0
2023/07/18 15:40:28.071,1689709228.071000000,-57.617,-8.301,-108.887,-77.637,0
2023/07/18 15:40:28.075,1689709228.075000000,-133.301,28.809,-52.246,-109.375,0
2023/07/18 15:40:28.079,1689709228.079000000,0.488,27.344,17.578,-23.926,0
2023/07/18 15:40:28.083,1689709228.083000000,121.582,5.371,-35.156,7.324,0
2023/07/18 15:40:28.087,1689709228.087000000,22.461,-1.953,-222.168,-62.5,0
2023/07/18 15:40:28.091,1689709228.091000000,-104.492,-26.855,-270.508,-103.027,0
2023/07/18 15:40:28.095,1689709228.095000000,-12.695,0,-190.918,-14.16,0
2023/07/18 15:40:28.098,1689709228.098000000,128.418,-19.043,-304.199,60.059,0
2023/07/18 15:40:28.102,1689709228.102000000,62.012,-31.738,-371.582,-15.137,0
2023/07/18 15:40:28.106,1689709228.106000000,-79.102,28.32,-220.703,-114.258,0
2023/07/18 15:40:28.110,1689709228.110000000,-36.133,46.875,-295.898,-72.266,0
2023/07/18 15:40:28.114,1689709228.114000000,97.656,41.504,-266.113,2.441,0
2023/07/18 15:40:28.118,1689709228.118000000,77.148,17.09,-225.586,-6.348,0
2023/07/18 15:40:28.122,1689709228.122000000,-70.312,-23.438,-336.914,-57.617,0
2023/07/18 15:40:28.126,1689709228.126000000,-83.008,-37.598,-349.121,-51.27,0
2023/07/18 15:40:28.130,1689709228.130000000,60.059,-23.438,-296.875,-16.602,0
2023/07/18 15:40:28.134,1689709228.134000000,106.934,-17.578,-294.434,-14.16,0
2023/07/18 15:40:28.138,1689709228.138000000,-25.391,9.766,-323.73,-75.684,0
2023/07/18 15:40:28.141,1689709228.141000000,-112.793,32.715,-375,-109.863,0
2023/07/18 15:40:28.145,1689709228.145000000,30.273,30.273,-396.484,-29.785,0
2023/07/18 15:40:28.149,1689709228.149000000,139.648,37.598,-247.07,1.953,0
2023/07/18 15:40:28.153,1689709228.153000000,29.785,34.18,-254.883,-52.734,0
2023/07/18 15:40:28.157,1689709228.157000000,-117.188,12.695,-431.641,-96.68,0
2023/07/18 15:40:28.161,1689709228.161000000,-39.551,12.207,-379.395,-73.242,0
2023/07/18 15:40:28.165,1689709228.165000000,132.324,28.809,-176.27,3.418,0
2023/07/18 15:40:28.169,1689709228.169000000,67.871,10.742,-231.445,-7.324,0
2023/07/18 15:40:28.173,1689709228.173000000,-97.656,-22.949,-338.379,-93.75,0
2023/07/18 15:40:28.177,1689709228.177000000,-43.457,-23.438,-362.305,-83.496,0
2023/07/18 15:40:28.180,1689709228.180000000,123.047,-64.941,-342.773,28.32,0
2023/07/18 15:40:28.184,1689709228.184000000,123.047,-91.797,-294.922,32.715,0
2023/07/18 15:40:28.188,1689709228.188000000,-20.02,-65.43,-504.883,-61.035,0
2023/07/18 15:40:28.192,1689709228.192000000,-47.363,-22.949,-565.918,-74.707,0
2023/07/18 15:40:28.196,1689709228.196000000,94.238,9.766,-274.414,-32.227,0
2023/07/18 15:40:28.200,1689709228.200000000,141.113,12.695,-312.012,7.812,0
2023/07/18 15:40:28.204,1689709228.204000000,11.719,-22.949,-428.711,-50.781,0
2023/07/18 15:40:28.208,1689709228.208000000,-85.938,-94.238,-410.156,-105.957,0
2023/07/18 15:40:28.212,1689709228.212000000,46.875,-111.328,-331.055,-9.766,0
2023/07/18 15:40:28.216,1689709228.216000000,178.711,-107.91,-312.5,42.48,0
2023/07/18 15:40:28.220,1689709228.220000000,57.129,-105.469,-370.605,-38.086,0
2023/07/18 15:40:28.223,1689709228.223000000,-109.863,-102.051,-418.945,-125.977,0
2023/07/18 15:40:28.227,1689709228.227000000,-33.203,-100.586,-408.203,-77.148,0
2023/07/18 15:40:28.231,1689709228.231000000,136.719,-91.797,-388.672,33.203,0
2023/07/18 15:40:28.235,1689709228.235000000,107.91,-98.633,-438.965,-0.977,0
2023/07/18 15:40:28.239,1689709228.239000000,-79.102,-94.727,-405.762,-140.137,0
2023/07/18 15:40:28.243,1689709228.243000000,-103.027,-82.031,-358.398,-130.371,0
2023/07/18 15:40:28.247,1689709228.247000000,81.055,-86.914,-355.957,-18.066,0
2023/07/18 15:40:28.251,1689709228.251000000,121.094,-84.473,-383.789,-2.441,0
2023/07/18 15:40:28.255,1689709228.255000000,-30.273,-73.73,-375,-70.312,0
2023/07/18 15:40:28.259,1689709228.259000000,-100.586,-77.148,-425.293,-84.961,0
2023/07/18 15:40:28.263,1689709228.263000000,52.734,-82.031,-421.875,4.395,0
2023/07/18 15:40:28.266,1689709228.266000000,138.672,-72.754,-381.348,22.949,0
2023/07/18 15:40:28.270,1689709228.270000000,0.488,-70.801,-432.617,-46.875,0
2023/07/18 15:40:28.274,1689709228.274000000,-120.117,-72.754,-503.418,-104.004,0
2023/07/18 15:40:28.278,1689709228.278000000,-38.086,-80.078,-589.844,-43.457,0
2023/07/18 15:40:28.282,1689709228.282000000,96.68,-67.383,-541.992,37.109,0
2023/07/18 15:40:28.286,1689709228.286000000,36.621,-43.945,-378.906,-23.926,0
2023/07/18 15:40:28.290,1689709228.290000000,-113.77,-59.57,-465.332,-98.633,0
2023/07/18 15:40:28.294,1689709228.294000000,-67.871,-67.871,-454.102,-60.059,0
2023/07/18 15:40:28.298,1689709228.298000000,93.262,-44.922,-322.754,4.883,0
2023/07/18 15:40:28.302,1689709228.302000000,56.152,-37.598,-281.25,-25.879,0
2023/07/18 15:40:28.305,1689709228.305000000,-119.629,-57.129,-416.016,-99.609,0
2023/07/18 15:40:28.309,1689709228.309000000,-116.699,-62.5,-435.547,-84.961,0
2023/07/18 15:40:28.313,1689709228.313000000,40.039,-62.012,-312.5,-11.23,0
2023/07/18 15:40:28.317,1689709228.317000000,72.266,-59.57,-295.898,-18.555,0
2023/07/18 15:40:28.321,1689709228.321000000,-71.777,-72.754,-425.293,-93.262,0
2023/07/18 15:40:28.325,1689709228.325000000,-144.531,-93.262,-480.469,-103.027,0
2023/07/18 15:40:28.329,1689709228.329000000,-12.695,-67.871,-313.477,-41.504,0
2023/07/18 15:40:28.333,1689709228.333000000,99.121,-41.504,-215.332,-24.902,0
2023/07/18 15:40:28.337,1689709228.337000000,-31.738,-56.152,-356.934,-69.824,0
2023/07/18 15:40:28.340,1689709228.340000000,-174.805,-62.988,-451.172,-105.957,0
2023/07/18 15:40:28.344,1689709228.344000000,-58.105,-62.012,-357.91,-28.32,0
2023/07/18 15:40:28.348,1689709228.348000000,67.871,-58.594,-271.484,37.598,0
2023/07/18 15:40:28.352,1689709228.352000000,-8.789,-64.941,-346.68,-38.574,0
2023/07/18 15:40:28.356,1689709228.356000000,-138.184,-72.266,-458.008,-120.605,0
2023/07/18 15:40:28.360,1689709228.360000000,-116.211,-62.5,-355.957,-103.516,0
2023/07/18 15:40:28.364,1689709228.364000000,25.391,-61.035,-274.902,-10.254,0
2023/07/18 15:40:28.368,1689709228.368000000,30.762,-74.707,-433.594,12.695,0
2023/07/18 15:40:28.372,1689709228.372000000,-110.84,-80.078,-603.516,-79.102,0
2023/07/18 15:40:28.376,1689709228.376000000,-143.555,-60.059,-458.496,-103.516,0
2023/07/18 15:40:28.380,1689709228.380000000,5.371,-46.387,-352.051,-26.855,0
2023/07/18 15:40:28.383,1689709228.383000000,78.613,-59.082,-417.969,-6.348,0
2023/07/18 15:40:28.387,1689709228.387000000,-65.43,-67.871,-458.008,-52.246,0
2023/07/18 15:40:28.391,1689709228.391000000,-156.738,-57.617,-457.52,-81.543,0
2023/07/18 15:40:28.395,1689709228.395000000,-14.16,-62.988,-432.129,-16.113,0
2023/07/18 15:40:28.399,1689709228.399000000,97.656,-67.383,-414.551,16.113,0
2023/07/18 15:40:28.403,1689709228.403000000,1.953,-59.57,-398.926,-60.059,0
2023/07/18 15:40:28.407,1689709228.407000000,-144.043,-51.758,-392.09,-123.047,0
2023/07/18 15:40:28.411,1689709228.411000000,-78.613,-58.594,-384.766,-83.008,0
2023/07/18 15:40:28.415,1689709228.415000000,64.453,-85.449,-375.488,2.441,0
2023/07/18 15:40:28.419,1689709228.419000000,-10.254,-76.172,-336.426,-65.918,0
2023/07/18 15:40:28.423,1689709228.423000000,-194.336,-82.031,-322.754,-140.137,0
2023/07/18 15:40:28.426,1689709228.426000000,-41.992,-86.914,-348.633,-23.926,0
2023/07/18 15:40:28.430,1689709228.430000000,174.316,-50.293,-331.543,91.797,0
2023/07/18 15:40:28.434,1689709228.434000000,107.91,-21.484,-259.277,23.926,0
2023/07/18 15:40:28.438,1689709228.438000000,-143.066,-59.082,-334.961,-114.258,0
2023/07/18 15:40:28.442,1689709228.442000000,-193.359,-66.895,-479.492,-127.441,0
2023/07/18 15:40:28.446,1689709228.446000000,-6.836,-54.688,-477.051,-54.688,0
2023/07/18 15:40:28.450,1689709228.450000000,85.449,-62.988,-329.102,-5.859,0
2023/07/18 15:40:28.454,1689709228.454000000,-38.574,-26.855,-408.691,-99.609,0
2023/07/18 15:40:28.458,1689709228.458000000,-277.344,-71.289,-504.395,-206.055,0
2023/07/18 15:40:28.462,1689709228.462000000,-83.008,-87.402,-399.414,-130.859,0
2023/07/18 15:40:28.466,1689709228.466000000,52.734,-45.41,-300.781,-79.102,0
2023/07/18 15:40:28.469,1689709228.469000000,-175.293,-47.363,-313.477,-167.48,0
2023/07/18 15:40:28.473,1689709228.473000000,-192.383,-70.312,-554.199,-195.312,0
2023/07/18 15:40:28.477,1689709228.477000000,64.453,-52.734,-601.074,-85.938,0
2023/07/18 15:40:28.481,1689709228.481000000,223.633,-5.859,-380.859,-18.066,0
2023/07/18 15:40:28.485,1689709228.485000000,69.824,-39.551,-463.379,-84.473,0
2023/07/18 15:40:28.489,1689709228.489000000,-188.477,-48.828,-516.602,-189.453,0
2023/07/18 15:40:28.493,1689709228.493000000,-204.59,-29.297,-372.559,-182.617,0
2023/07/18 15:40:28.497,1689709228.497000000,-63.965,-27.344,-269.531,-113.281,0
2023/07/18 15:40:28.501,1689709228.501000000,-37.598,-40.527,-345.703,-107.422,0
2023/07/18 15:40:28.505,1689709228.505000000,-221.191,-31.25,-540.527,-172.363,0
2023/07/18 15:40:28.509,1689709228.509000000,-318.359,-34.18,-667.48,-165.527,0
2023/07/18 15:40:28.512,1689709228.512000000,-192.871,-67.871,-676.27,-111.328,0
2023/07/18 15:40:28.516,1689709228.516000000,-121.094,-90.332,-699.707,-128.418,0
2023/07/18 15:40:28.520,1689709228.520000000,-234.863,-115.234,-747.559,-194.824,0
2023/07/18 15:40:28.524,1689709228.524000000,-355.469,-111.816,-712.402,-237.305,0
2023/07/18 15:40:28.528,1689709228.528000000,-269.531,-106.934,-587.891,-167.48,0
2023/07/18 15:40:28.532,1689709228.532000000,-141.113,-122.07,-593.75,-112.793,0
2023/07/18 15:40:28.536,1689709228.536000000,-235.352,-135.742,-651.367,-191.895,0
2023/07/18 15:40:28.540,1689709228.540000000,-388.184,-140.137,-566.895,-281.25,0
2023/07/18 15:40:28.544,1689709228.544000000,-320.312,-151.855,-550.781,-248.535,0
2023/07/18 15:40:28.548,1689709228.548000000,-158.203,-152.832,-492.676,-141.602,0
2023/07/18 15:40:28.552,1689709228.552000000,-145.02,-144.043,-450.195,-151.855,0
2023/07/18 15:40:28.555,1689709228.555000000,-273.438,-151.367,-524.902,-237.793,0
2023/07/18 15:40:28.559,1689709228.559000000,-286.133,-151.855,-463.379,-233.887,0
2023/07/18 15:40:28.563,1689709228.563000000,-139.648,-158.203,-458.008,-152.832,0
2023/07/18 15:40:28.567,1689709228.567000000,-125,-165.039,-503.418,-131.348,0
2023/07/18 15:40:28.571,1689709228.571000000,-249.023,-145.02,-330.566,-218.262,0
2023/07/18 15:40:28.575,1689709228.575000000,-293.457,-142.578,-344.727,-266.602,0
2023/07/18 15:40:28.579,1689709228.579000000,-185.059,-145.508,-345.703,-171.387,0
2023/07/18 15:40:28.583,1689709228.583000000,-91.797,-143.066,-252.441,-97.168,0
2023/07/18 15:40:28.587,1689709228.587000000,-168.945,-139.16,-298.34,-167.48,0
2023/07/18 15:40:28.591,1689709228.591000000,-271.973,-134.766,-401.855,-216.797,0
2023/07/18 15:40:28.594,1689709228.594000000,-188.477,-130.371,-390.625,-146.973,0
2023/07/18 15:40:28.598,1689709228.598000000,-37.598,-122.07,-333.008,-80.566,0
2023/07/18 15:40:28.602,1689709228.602000000,-66.895,-125,-389.648,-120.117,0
2023/07/18 15:40:28.606,1689709228.606000000,-234.375,-127.93,-497.559,-204.102,0
2023/07/18 15:40:28.610,1689709228.610000000,-214.844,-132.324,-537.598,-182.129,0
2023/07/18 15:40:28.614,1689709228.614000000,-12.207,-109.863,-376.953,-88.867,0
2023/07/18 15:40:28.618,1689709228.618000000,-0.488,-91.797,-317.871,-81.055,0
2023/07/18 15:40:28.622,1689709228.622000000,-134.277,-95.215,-510.742,-146.484,0
2023/07/18 15:40:28.626,1689709228.626000000,-150.391,-87.402,-572.266,-134.766,0
2023/07/18 15:40:28.630,1689709228.630000000,-51.27,-74.219,-372.559,-65.918,0
2023/07/18 15:40:28.634,1689709228.634000000,21.484,-49.316,-315.43,-62.988,0
2023/07/18 15:40:28.637,1689709228.637000000,-94.727,-52.734,-445.801,-135.254,0
2023/07/18 15:40:28.641,1689709228.641000000,-208.984,-41.992,-466.309,-157.715,0
2023/07/18 15:40:28.645,1689709228.645000000,-75.684,9.277,-374.023,-48.828,0
2023/07/18 15:40:28.649,1689709228.649000000,64.941,-12.207,-404.785,0,0
2023/07/18 15:40:28.653,1689709228.653000000,-32.227,-30.273,-615.234,-49.805,0
2023/07/18 15:40:28.657,1689709228.657000000,-187.012,5.859,-742.188,-88.867,0
2023/07/18 15:40:28.661,1689709228.661000000,-107.91,69.336,-551.758,-84.961,0
2023/07/18 15:40:28.665,1689709228.665000000,46.875,57.129,-539.062,-29.297,0
2023/07/18 15:40:28.669,1689709228.669000000,-36.133,-12.695,-633.789,-48.34,0
2023/07/18 15:40:28.672,1689709228.672000000,-214.355,-17.578,-649.902,-117.676,0
2023/07/18 15:40:28.676,1689709228.676000000,-203.125,-7.812,-626.953,-80.078,0
2023/07/18 15:40:28.680,1689709228.680000000,-26.367,-12.207,-614.258,-14.648,0
2023/07/18 15:40:28.684,1689709228.684000000,1.465,-8.789,-624.512,-20.02,0
2023/07/18 15:40:28.688,1689709228.688000000,-143.066,-3.418,-650.391,-61.035,0
2023/07/18 15:40:28.692,1689709228.692000000,-176.27,-1.465,-708.008,-75.684,0
2023/07/18 15:40:28.696,1689709228.696000000,-40.527,6.836,-730.469,7.324,0
2023/07/18 15:40:28.700,1689709228.700000000,20.02,3.418,-703.125,41.016,0
2023/07/18 15:40:28.704,1689709228.704000000,-125,20.02,-670.898,-79.102,0
2023/07/18 15:40:28.708,1689709228.708000000,-204.102,54.688,-641.113,-108.398,0
2023/07/18 15:40:28.711,1689709228.711000000,-64.941,49.805,-649.414,-32.715,0
2023/07/18 15:40:28.715,1689709228.715000000,8.789,35.156,-626.953,-18.555,0
2023/07/18 15:40:28.719,1689709228.719000000,-115.234,52.246,-560.547,-78.125,0
2023/07/18 15:40:28.723,1689709228.723000000,-240.723,73.242,-589.844,-128.906,0
2023/07/18 15:40:28.727,1689709228.727000000,-190.918,74.219,-627.93,-83.984,0
2023/07/18 15:40:28.731,1689709228.731000000,-42.969,77.148,-609.863,9.766,0
2023/07/18 15:40:28.735,1689709228.735000000,-62.988,76.172,-576.66,-18.066,0
2023/07/18 15:40:28.739,1689709228.739000000,-187.5,73.242,-609.863,-101.074,0
2023/07/18 15:40:28.743,1689709228.743000000,-187.5,64.941,-736.816,-95.215,0
2023/07/18 15:40:28.747,1689709228.747000000,-53.223,61.523,-745.117,-9.277,0
2023/07/18 15:40:28.751,1689709228.751000000,-16.602,74.707,-567.383,13.672,0
2023/07/18 15:40:28.754,1689709228.754000000,-157.227,81.055,-605.957,-71.777,0
2023/07/18 15:40:28.758,1689709228.758000000,-214.355,126.953,-676.27,-94.727,0
2023/07/18 15:40:28.762,1689709228.762000000,-72.754,138.672,-586.426,-12.695,0
2023/07/18 15:40:28.766,1689709228.766000000,45.41,99.609,-494.141,32.715,0
2023/07/18 15:40:28.770,1689709228.770000000,-79.102,73.242,-578.125,-29.297,0
2023/07/18 15:40:28.774,1689709228.774000000,-187.012,54.688,-654.297,-79.102,0
2023/07/18 15:40:28.778,1689709228.778000000,-101.562,47.852,-551.758,-45.898,0
2023/07/18 15:40:28.782,1689709228.782000000,29.297,53.711,-477.051,8.789,0
2023/07/18 15:40:28.786,1689709228.786000000,-10.742,37.109,-534.18,-22.949,0
2023/07/18 15:40:28.790,1689709228.790000000,-125.977,19.531,-654.297,-67.871,0
2023/07/18 15:40:28.794,1689709228.794000000,-49.805,29.297,-630.371,-24.902,0
2023/07/18 15:40:28.797,1689709228.797000000,45.41,42.48,-470.703,51.27,0
2023/07/18 15:40:28.801,1689709228.801000000,4.395,46.387,-476.562,20.996,0
2023/07/18 15:40:28.805,1689709228.805000000,-127.93,33.203,-611.816,-66.406,0
2023/07/18 15:40:28.809,1689709228.809000000,-136.719,47.852,-500,-87.891,0
2023/07/18 15:40:28.813,1689709228.813000000,40.039,73.242,-350.098,-0.488,0
2023/07/18 15:40:28.817,1689709228.817000000,0,83.984,-407.715,41.992,0
2023/07/18 15:40:28.821,1689709228.821000000,0,104.492,-500,-44.922,0
2023/07/18 15:40:28.825,1689709228.825000000,0,121.582,-479.004,-66.406,0
2023/07/18 15:40:28.829,1689709228.829000000,0,132.812,-436.035,12.695,0
2023/07/18 15:40:28.833,1689709228.833000000,0,146.484,-437.988,47.852,0
2023/07/18 15:40:28.837,1689709228.837000000,0,153.809,-510.742,-6.348,0
2023/07/18 15:40:28.840,1689709228.840000000,0,164.062,-526.855,-63.965,0
2023/07/18 15:40:28.844,1689709228.844000000,0,176.27,-478.516,-23.926,0
2023/07/18 15:40:28.848,1689709228.848000000,0,165.039,-552.734,60.059,0
2023/07/18 15:40:28.852,1689709228.852000000,0,164.062,-560.059,49.316,0
2023/07/18 15:40:28.856,1689709228.856000000,0,176.758,-400.879,-36.621,0
2023/07/18 15:40:28.860,1689709228.860000000,0,158.691,-439.453,-20.996,0
2023/07/18 15:40:28.864,1689709228.864000000,164.551,153.32,-424.805,46.387,0
2023/07/18 15:40:28.868,1689709228.868000000,182.617,149.902,-354.98,15.137,0
2023/07/18 15:40:28.872,1689709228.872000000,-65.918,136.23,-416.992,-61.035,0
2023/07/18 15:40:28.876,1689709228.876000000,-113.281,125.977,-441.895,-66.895,0
2023/07/18 15:40:28.880,1689709228.880000000,53.223,121.094,-429.688,9.277,0
2023/07/18 15:40:28.884,1689709228.884000000,122.559,113.281,-452.637,43.457,0
2023/07/18 15:40:28.887,1689709228.887000000,-0.977,113.281,-421.875,-33.203,0
2023/07/18 15:40:28.891,1689709228.891000000,-126.465,51.27,-461.914,-90.332,0
2023/07/18 15:40:28.895,1689709228.895000000,1.465,-68.848,-499.512,-5.859,0
2023/07/18 15:40:28.899,1689709228.899000000,135.742,-82.52,-338.379,64.941,0
2023/07/18 15:40:28.903,1689709228.903000000,14.16,-82.52,-374.512,-32.715,0
2023/07/18 15:40:28.907,1689709228.907000000,-121.094,-107.91,-523.438,-113.77,0
2023/07/18 15:40:28.911,1689709228.911000000,-45.41,-86.914,-479.004,-62.012,0
2023/07/18 15:40:28.915,1689709228.915000000,121.094,-57.617,-340.332,18.066,0
2023/07/18 15:40:28.919,1689709228.919000000,73.73,-54.688,-352.539,-15.137,0
2023/07/18 15:40:28.923,1689709228.923000000,-87.402,-61.523,-458.496,-92.773,0
2023/07/18 15:40:28.927,1689709228.927000000,-55.176,-57.129,-474.121,-69.336,0
2023/07/18 15:40:28.930,1689709228.930000000,99.609,-36.621,-388.184,12.695,0
2023/07/18 15:40:28.934,1689709228.934000000,117.188,-31.25,-422.363,34.18,0
2023/07/18 15:40:28.938,1689709228.938000000,-26.367,-41.016,-513.672,-49.316,0
2023/07/18 15:40:28.942,1689709228.942000000,-77.637,-30.273,-434.082,-97.656,0
2023/07/18 15:40:28.946,1689709228.946000000,62.988,-5.859,-335.449,-2.441,0
2023/07/18 15:40:28.950,1689709228.950000000,152.832,-5.859,-269.043,39.062,0
2023/07/18 15:40:28.954,1689709228.954000000,30.273,-28.809,-490.234,-20.02,0
2023/07/18 15:40:28.958,1689709228.958000000,-83.008,-27.832,-567.383,-49.805,0
2023/07/18 15:40:28.962,1689709228.962000000,38.086,11.719,-277.832,-30.273,0
2023/07/18 15:40:28.966,1689709228.966000000,174.316,21.973,-208.008,8.301,0
2023/07/18 15:40:28.969,1689709228.969000000,84.473,9.766,-263.184,-25.879,0
2023/07/18 15:40:28.973,1689709228.973000000,-61.523,6.836,-343.262,-89.355,0
2023/07/18 15:40:28.977,1689709228.977000000,14.648,0,-363.77,-50.293,0
2023/07/18 15:40:28.981,1689709228.981000000,152.832,-0.977,-291.992,21.973,0
2023/07/18 15:40:28.985,1689709228.985000000,100.098,-10.254,-335.938,-9.766,0
2023/07/18 15:40:28.989,1689709228.989000000,-60.547,-4.395,-354.492,-88.379,0
2023/07/18 15:40:28.993,1689709228.993000000,-68.848,15.625,-336.426,-88.379,0
2023/07/18 15:40:28.997,1689709228.997000000,83.984,11.719,-357.91,-7.812,0
2023/07/18 15:40:29.001,1689709229.001000000,129.395,3.906,-369.629,12.695,0
2023/07/18 15:40:29.005,1689709229.005000000,4.395,0,-369.629,-42.969,0
2023/07/18 15:40:29.009,1689709229.009000000,-74.707,-5.371,-409.668,-39.551,0
2023/07/18 15:40:29.012,1689709229.012000000,25.391,-11.23,-429.688,5.859,0
2023/07/18 15:40:29.016,1689709229.016000000,129.883,-4.883,-370.117,0.488,0
2023/07/18 15:40:29.020,1689709229.020000000,18.066,-0.977,-344.727,-50.781,0
2023/07/18 15:40:29.024,1689709229.024000000,-124.023,-16.113,-404.785,-110.352,0
2023/07/18 15:40:29.028,1689709229.028000000,-38.574,-34.18,-505.859,-77.148,0
2023/07/18 15:40:29.032,1689709229.032000000,105.957,-26.855,-437.988,7.812,0
2023/07/18 15:40:29.036,1689709229.036000000,56.641,3.906,-220.215,-23.926,0
2023/07/18 15:40:29.040,1689709229.040000000,-101.562,-4.395,-323.242,-107.422,0
2023/07/18 15:40:29.044,1689709229.044000000,-72.754,-20.508,-405.762,-76.66,0
2023/07/18 15:40:29.047,1689709229.047000000,105.469,-0.977,-294.434,32.715,0
2023/07/18 15:40:29.051,1689709229.051000000,109.375,41.992,-226.074,20.508,0
2023/07/18 15:40:29.055,1689709229.055000000,-52.246,55.664,-354.492,-83.984,0
2023/07/18 15:40:29.059,1689709229.059000000,-87.402,76.172,-440.43,-69.336,0
2023/07/18 15:40:29.063,1689709229.063000000,57.617,75.684,-325.684,12.207,0
2023/07/18 15:40:29.067,1689709229.067000000,109.375,10.254,-328.125,37.109,0
2023/07/18 15:40:29.071,1689709229.071000000,-19.531,-25.879,-504.883,-37.109,0
2023/07/18 15:40:29.075,1689709229.075000000,-104.98,-41.992,-601.074,-89.355,0
2023/07/18 15:40:29.079,1689709229.079000000,7.324,-20.02,-456.543,-23.926,0
2023/07/18 15:40:29.083,1689709229.083000000,107.91,14.648,-273.438,15.625,0
2023/07/18 15:40:29.086,1689709229.086000000,3.906,-2.441,-422.363,-24.902,0
2023/07/18 15:40:29.090,1689709229.090000000,-111.328,-12.695,-522.949,-58.105,0
2023/07/18 15:40:29.094,1689709229.094000000,-57.129,0.977,-374.023,-22.461,0
2023/07/18 15:40:29.098,1689709229.098000000,68.848,41.016,-290.039,30.273,0
2023/07/18 15:40:29.102,1689709229.102000000,26.855,69.336,-399.414,-4.395,0
2023/07/18 15:40:29.106,1689709229.106000000,-145.508,34.18,-500.977,-104.98,0
2023/07/18 15:40:29.110,1689709229.110000000,-137.695,-0.488,-350.098,-101.562,0
2023/07/18 15:40:29.114,1689709229.114000000,25.391,-2.93,-261.719,3.418,0
2023/07/18 15:40:29.118,1689709229.118000000,24.414,-23.926,-419.922,29.297,0
2023/07/18 15:40:29.122,1689709229.122000000,-141.602,-33.691,-551.758,-50.781,0
2023/07/18 15:40:29.126,1689709229.126000000,-192.871,-10.254,-428.711,-83.496,0
2023/07/18 15:40:29.129,1689709229.129000000,-56.152,-1.465,-354.492,-5.859,0
2023/07/18 15:40:29.133,1689709229.133000000,28.809,-5.371,-351.074,24.902,0
2023/07/18 15:40:29.137,1689709229.137000000,-106.934,-3.906,-372.559,-56.641,0
2023/07/18 15:40:29.141,1689709229.141000000,-237.305,-7.324,-408.203,-124.023,0
2023/07/18 15:40:29.145,1689709229.145000000,-138.184,-9.766,-400.879,-63.477,0
2023/07/18 15:40:29.149,1689709229.149000000,-8.789,-4.395,-381.348,18.555,0
2023/07/18 15:40:29.153,1689709229.153000000,-63.477,3.906,-382.324,-26.367,0
2023/07/18 15:40:29.157,1689709229.157000000,-177.246,4.883,-448.73,-64.453,0
2023/07/18 15:40:29.161,1689709229.161000000,-106.934,-0.977,-464.844,-2.441,0
2023/07/18 15:40:29.165,1689709229.165000000,41.016,-7.324,-437.5,50.293,0
2023/07/18 15:40:29.169,1689709229.169000000,3.906,1.465,-427.734,37.109,0
2023/07/18 15:40:29.172,1689709229.172000000,-135.254,11.23,-461.426,-54.199,0
2023/07/18 15:40:29.176,1689709229.176000000,-137.207,14.648,-515.137,-70.801,0
2023/07/18 15:40:29.180,1689709229.180000000,17.09,44.434,-517.09,32.715,0
2023/07/18 15:40:29.184,1689709229.184000000,67.871,95.703,-412.109,20.996,0
2023/07/18 15:40:29.188,1689709229.188000000,-81.055,120.117,-419.434,-81.055,0
2023/07/18 15:40:29.192,1689709229.192000000,-148.438,112.305,-549.805,-92.285,0
2023/07/18 15:40:29.196,1689709229.196000000,-2.93,120.117,-515.625,-14.648,0
2023/07/18 15:40:29.200,1689709229.200000000,81.543,133.301,-358.887,38.574,0
2023/07/18 15:40:29.204,1689709229.204000000,-28.32,127.441,-383.789,-23.926,0
2023/07/18 15:40:29.208,1689709229.208000000,-127.93,114.258,-466.309,-51.758,0
2023/07/18 15:40:29.212,1689709229.212000000,-40.039,108.887,-504.395,16.113,0
2023/07/18 15:40:29.215,1689709229.215000000,104.004,111.328,-419.922,30.762,0
2023/07/18 15:40:29.219,1689709229.219000000,37.598,120.117,-370.117,-9.277,0
2023/07/18 15:40:29.223,1689709229.223000000,-125.488,103.516,-615.723,-62.988,0
2023/07/18 15:40:29.227,1689709229.227000000,-86.426,95.215,-635.254,-27.344,0
2023/07/18 15:40:29.231,1689709229.231000000,83.984,128.906,-338.867,37.598,0
2023/07/18 15:40:29.235,1689709229.235000000,83.496,116.699,-382.324,18.066,0
2023/07/18 15:40:29.239,1689709229.239000000,-85.449,85.449,-490.723,-75.195,0
2023/07/18 15:40:29.243,1689709229.243000000,-130.859,74.219,-427.734,-76.172,0
2023/07/18 15:40:29.247,1689709229.247000000,44.434,68.359,-303.711,77.637,0
2023/07/18 15:40:29.251,1689709229.251000000,148.438,74.219,-309.082,91.797,0
2023/07/18 15:40:29.254,1689709229.254000000,-7.324,82.031,-429.688,-78.125,0
2023/07/18 15:40:29.258,1689709229.258000000,-140.137,69.824,-495.605,-146.973,0
2023/07/18 15:40:29.262,1689709229.262000000,-20.508,66.406,-375.977,-28.809,0
2023/07/18 15:40:29.266,1689709229.266000000,68.359,80.078,-281.738,-11.23,0
2023/07/18 15:40:29.270,1689709229.270000000,-46.875,68.359,-424.316,-95.215,0
2023/07/18 15:40:29.274,1689709229.274000000,-186.523,87.891,-390.137,-165.039,0
2023/07/18 15:40:29.278,1689709229.278000000,-122.559,96.68,-274.414,-158.691,0
2023/07/18 15:40:29.282,1689709229.282000000,27.344,82.031,-297.852,-51.27,0
2023/07/18 15:40:29.286,1689709229.286000000,-45.41,91.797,-339.844,-103.516,0
2023/07/18 15:40:29.290,1689709229.290000000,-198.242,84.473,-339.355,-202.637,0
2023/07/18 15:40:29.294,1689709229.294000000,-154.297,70.312,-370.605,-166.992,0
2023/07/18 15:40:29.298,1689709229.298000000,14.648,72.266,-305.664,-84.473,0
2023/07/18 15:40:29.301,1689709229.301000000,30.762,73.73,-290.527,-84.473,0
2023/07/18 15:40:29.305,1689709229.305000000,-134.277,59.57,-398.926,-188.965,0
2023/07/18 15:40:29.309,1689709229.309000000,-174.316,58.105,-370.605,-177.734,0
2023/07/18 15:40:29.313,1689709229.313000000,-6.836,49.316,-413.574,-20.508,0
2023/07/18 15:40:29.317,1689709229.317000000,55.664,46.875,-398.438,-26.855,0
2023/07/18 15:40:29.321,1689709229.321000000,-70.801,68.848,-236.816,-144.043,0
2023/07/18 15:40:29.325,1689709229.325000000,-137.695,56.152,-354.492,-145.02,0
2023/07/18 15:40:29.329,1689709229.329000000,-39.062,41.992,-355.957,-77.637,0
2023/07/18 15:40:29.333,1689709229.333000000,50.293,46.387,-225.098,-32.715,0
2023/07/18 15:40:29.337,1689709229.337000000,-32.715,39.062,-215.82,-82.52,0
2023/07/18 15:40:29.341,1689709229.341000000,-164.062,15.137,-318.848,-143.555,0
2023/07/18 15:40:29.344,1689709229.344000000,-103.027,14.16,-318.359,-95.215,0
2023/07/18 15:40:29.348,1689709229.348000000,68.359,25.879,-192.383,-5.371,0
2023/07/18 15:40:29.352,1689709229.352000000,41.016,18.066,-216.797,-32.227,0
2023/07/18 15:40:29.356,1689709229.356000000,-115.723,9.277,-333.008,-107.91,0
2023/07/18 15:40:29.360,1689709229.360000000,-81.543,18.555,-285.645,-61.035,0
2023/07/18 15:40:29.364,1689709229.364000000,71.777,23.438,-122.559,-0.488,0
2023/07/18 15:40:29.368,1689709229.368000000,48.34,17.578,30.762,-21.484,0
2023/07/18 15:40:29.372,1689709229.372000000,-111.328,7.812,-162.598,-88.379,0
2023/07/18 15:40:29.376,1689709229.376000000,-153.32,-16.113,-432.617,-105.469,0
2023/07/18 15:40:29.380,1689709229.380000000,-13.672,-4.395,-167.969,-32.715,0
2023/07/18 15:40:29.383,1689709229.383000000,64.941,10.742,20.996,-15.625,0
2023/07/18 15:40:29.387,1689709229.387000000,-56.152,3.906,-184.082,-76.66,0
2023/07/18 15:40:29.391,1689709229.391000000,-128.418,6.836,-321.289,-98.633,0
2023/07/18 15:40:29.395,1689709229.395000000,-26.367,12.695,-191.895,-50.781,0
2023/07/18 15:40:29.399,1689709229.399000000,73.73,5.371,-149.414,26.367,0
2023/07/18 15:40:29.403,1689709229.403000000,-5.371,-18.066,-347.168,-2.441,0
2023/07/18 15:40:29.407,1689709229.407000000,-137.695,-23.926,-500,-82.52,0
2023/07/18 15:40:29.411,1689709229.411000000,-81.543,2.441,-283.203,-31.738,0
2023/07/18 15:40:29.415,1689709229.415000000,63.965,6.348,-91.309,39.062,0
2023/07/18 15:40:29.419,1689709229.419000000,54.199,-5.859,-177.246,4.395,0
2023/07/18 15:40:29.422,1689709229.422000000,-119.629,-10.742,-279.297,-84.961,0
2023/07/18 15:40:29.426,1689709229.426000000,-141.602,-7.812,-233.398,-110.352,0
2023/07/18 15:40:29.430,1689709229.430000000,40.039,-5.371,-210.938,-27.344,0
2023/07/18 15:40:29.434,1689709229.434000000,98.633,-12.207,-229.004,15.625,0
2023/07/18 15:40:29.438,1689709229.438000000,-50.293,-18.066,-256.836,-66.895,0
2023/07/18 15:40:29.442,1689709229.442000000,-145.508,-17.09,-290.039,-102.539,0
2023/07/18 15:40:29.446,1689709229.446000000,0,-19.043,-275.879,-5.371,0
2023/07/18 15:40:29.450,1689709229.450000000,120.605,-32.227,-307.617,45.898,0
2023/07/18 15:40:29.454,1689709229.454000000,-4.883,-22.949,-289.551,-39.062,0
2023/07/18 15:40:29.458,1689709229.458000000,-126.953,-5.371,-260.254,-123.047,0
2023/07/18 15:40:29.461,1689709229.461000000,-45.898,-22.949,-302.734,-59.082,0
2023/07/18 15:40:29.465,1689709229.465000000,83.008,-27.344,-270.508,35.156,0
2023/07/18 15:40:29.469,1689709229.469000000,17.09,-13.184,-243.652,-27.344,0
2023/07/18 15:40:29.473,1689709229.473000000,0,-10.742,-291.016,-116.211,0
2023/07/18 15:40:29.477,1689709229.477000000,0,-15.137,-358.398,-64.941,0
2023/07/18 15:40:29.481,1689709229.481000000,0,-5.859,-296.875,0.488,0
2023/07/18 15:40:29.485,1689709229.485000000,0,6.348,-204.102,-4.395,0
2023/07/18 15:40:29.489,1689709229.489000000,0,3.418,-283.203,-33.203,0
2023/07/18 15:40:29.493,1689709229.493000000,0,-13.184,-479.98,-36.133,0
2023/07/18 15:40:29.497,1689709229.497000000,0,-7.324,-458.008,16.602,0
2023/07/18 15:40:29.500,1689709229.500000000,0,18.555,-221.68,7.324,0
2023/07/18 15:40:29.504,1689709229.504000000,0,20.02,-305.176,-57.129,0
2023/07/18 15:40:29.508,1689709229.508000000,0,3.906,-440.43,-83.984,0
2023/07/18 15:40:29.512,1689709229.512000000,0,1.953,-331.055,-32.227,0
2023/07/18 15:40:29.516,1689709229.516000000,0,12.207,-255.371,19.043,0
2023/07/18 15:40:29.520,1689709229.520000000,12.695,2.93,-364.258,-23.926,0
2023/07/18 15:40:29.524,1689709229.524000000,-87.891,-9.766,-416.016,-68.359,0
2023/07/18 15:40:29.528,1689709229.528000000,19.043,11.23,-286.621,0,0
2023/07/18 15:40:29.532,1689709229.532000000,97.656,30.762,-169.434,38.574,0
2023/07/18 15:40:29.536,1689709229.536000000,-3.906,4.395,-214.844,-59.57,0
2023/07/18 15:40:29.540,1689709229.540000000,-147.949,-21.973,-348.145,-124.023,0
2023/07/18 15:40:29.544,1689709229.544000000,-100.098,-8.789,-285.645,-47.363,0
2023/07/18 15:40:29.547,1689709229.547000000,50.781,15.137,-87.402,-4.395,0
2023/07/18 15:40:29.551,1689709229.551000000,47.363,-10.742,-132.324,-41.992,0
2023/07/18 15:40:29.555,1689709229.555000000,-102.051,-28.809,-338.867,-79.102,0
2023/07/18 15:40:29.559,1689709229.559000000,-172.363,-10.254,-302.734,-114.746,0
2023/07/18 15:40:29.563,1689709229.563000000,-31.738,-8.301,-215.82,-76.66,0
2023/07/18 15:40:29.567,1689709229.567000000,67.383,-13.672,-246.582,-18.555,0
2023/07/18 15:40:29.571,1689709229.571000000,-53.711,-17.09,-382.324,-58.594,0
2023/07/18 15:40:29.575,1689709229.575000000,-170.41,-14.16,-397.461,-107.422,0
2023/07/18 15:40:29.579,1689709229.579000000,-60.547,-3.906,-279.785,-46.387,0
2023/07/18 15:40:29.583,1689709229.583000000,84.961,-5.371,-275.391,22.949,0
2023/07/18 15:40:29.587,1689709229.587000000,12.207,-11.719,-376.465,-3.906,0
2023/07/18 15:40:29.590,1689709229.590000000,-145.02,-12.695,-451.66,-62.012,0
2023/07/18 15:40:29.594,1689709229.594000000,-108.887,-9.766,-382.812,-42.48,0
2023/07/18 15:40:29.598,1689709229.598000000,38.574,-13.672,-409.668,7.324,0
2023/07/18 15:40:29.602,1689709229.602000000,8.301,-9.277,-451.172,-18.066,0
2023/07/18 15:40:29.606,1689709229.606000000,-147.461,5.859,-290.527,-113.281,0
2023/07/18 15:40:29.610,1689709229.610000000,-152.832,-3.418,-307.617,-89.355,0
2023/07/18 15:40:29.614,1689709229.614000000,0.488,-6.348,-259.766,0.488,0
2023/07/18 15:40:29.618,1689709229.618000000,26.367,-4.883,-120.117,-15.625,0
2023/07/18 15:40:29.622,1689709229.622000000,-107.422,-6.836,-203.613,-75.684,0
2023/07/18 15:40:29.626,1689709229.626000000,-164.551,-16.113,-326.66,-94.727,0
2023/07/18 15:40:29.630,1689709229.630000000,-49.805,-23.438,-309.082,-20.508,0
2023/07/18 15:40:29.634,1689709229.634000000,26.367,-15.137,-271.484,29.297,0
2023/07/18 15:40:29.637,1689709229.637000000,-99.121,-6.348,-234.375,-50.293,0
2023/07/18 15:40:29.641,1689709229.641000000,-205.078,-8.301,-315.43,-122.559,0
2023/07/18 15:40:29.645,1689709229.645000000,-103.027,-19.043,-380.371,-36.133,0
2023/07/18 15:40:29.649,1689709229.649000000,35.645,4.395,-198.242,34.668,0
2023/07/18 15:40:29.653,1689709229.653000000,-26.855,22.461,-205.078,-40.039,0
2023/07/18 15:40:29.657,1689709229.657000000,-178.711,11.23,-389.16,-106.445,0
2023/07/18 15:40:29.661,1689709229.661000000,0,12.207,-409.18,-63.965,0
2023/07/18 15:40:29.665,1689709229.665000000,0,26.855,-239.258,19.043,0
2023/07/18 15:40:29.669,1689709229.669000000,0,24.414,-207.52,12.695,0
2023/07/18 15:40:29.673,1689709229.673000000,0,8.789,-344.727,-60.547,0
2023/07/18 15:40:29.676,1689709229.676000000,0,13.672,-381.348,-68.359,0
2023/07/18 15:40:29.680,1689709229.680000000,0,21.973,-304.688,0.977,0
2023/07/18 15:40:29.684,1689709229.684000000,0,17.578,-261.23,24.902,0
2023/07/18 15:40:29.688,1689709229.688000000,0,7.324,-353.516,-52.734,0
2023/07/18 15:40:29.692,1689709229.692000000,0,10.254,-381.348,-92.773,0
2023/07/18 15:40:29.696,1689709229.696000000,0,14.16,-230.957,-9.277,0
2023/07/18 15:40:29.700,1689709229.700000000,0,0.977,-146.484,76.66,0
