timestamps,TP9,AF7,AF8,TP10,Right AUX
1691171862.019,-179.688,605.469,82.031,-112.305,0.000
1691171862.023,-182.129,-4.883,75.195,-107.422,0.000
1691171862.027,-146.973,175.293,38.086,-62.500,0.000
1691171862.030,-88.867,924.805,12.207,-26.367,0.000
1691171862.034,-53.223,704.590,23.926,-32.715,0.000
1691171862.038,-43.457,-18.066,43.457,-31.250,0.000
1691171862.042,-44.922,-146.484,44.922,-3.906,0.000
1691171862.046,-18.555,505.371,28.809,30.762,0.000
1691171862.050,-10.254,465.332,5.859,21.484,0.000
1691171862.054,-15.137,151.367,-10.254,4.883,0.000
1691171862.058,-12.207,-25.391,-22.949,13.672,0.000
1691171862.062,39.551,257.812,-26.367,53.711,0.000
1691171862.066,68.848,921.875,-29.785,90.820,0.000
1691171862.070,59.082,445.801,-44.922,66.895,0.000
1691171862.073,76.172,-469.238,-62.500,63.965,0.000
1691171862.077,63.477,-170.410,-64.453,95.703,0.000
1691171862.081,72.266,718.262,-62.500,93.750,0.000
1691171862.085,71.289,150.391,-77.148,83.496,0.000
1691171862.089,55.176,-672.363,-84.473,108.887,0.000
1691171862.093,91.797,-885.254,-77.148,121.582,0.000
1691171862.097,113.281,2.930,-86.914,109.863,0.000
1691171862.101,69.824,605.957,-105.469,83.496,0.000
1691171862.105,74.707,-304.688,-101.562,75.684,0.000
1691171862.109,98.633,-704.590,-87.891,86.914,0.000
1691171862.112,0.000,237.305,-87.402,107.910,0.000
1691171862.116,0.000,529.785,-91.309,116.699,0.000
1691171862.120,0.000,-506.836,-98.145,92.773,0.000
1691171862.124,0.000,-909.180,-102.539,89.844,0.000
1691171862.128,0.000,-255.859,-98.633,117.188,0.000
1691171862.132,0.000,260.254,-98.633,112.793,0.000
1691171862.136,0.000,-419.922,-105.469,78.613,0.000
1691171862.140,0.000,-948.730,-99.121,64.941,0.000
1691171862.144,0.000,-362.305,-89.844,84.473,0.000
1691171862.148,0.000,573.242,-90.820,96.680,0.000
1691171862.152,0.000,-35.645,-93.262,74.707,0.000
1691171862.155,0.000,-1000.000,-93.262,71.289,0.000
1691171862.159,56.152,-647.949,-99.609,78.125,0.000
1691171862.163,83.984,234.375,-88.867,102.051,0.000
1691171862.167,72.266,91.309,-72.266,109.863,0.000
1691171862.171,62.012,-686.035,-75.684,62.012,0.000
1691171862.175,51.758,-829.102,-76.172,33.203,0.000
1691171862.179,65.918,-248.535,-70.801,59.082,0.000
1691171862.183,90.332,-293.945,-74.707,77.148,0.000
1691171862.187,54.199,-952.148,-81.543,61.523,0.000
1691171862.191,46.875,-825.684,-77.148,33.203,0.000
1691171862.194,69.336,-318.359,-62.988,75.195,0.000
1691171862.198,47.363,203.613,-60.059,76.172,0.000
1691171862.202,13.184,-180.664,-65.918,38.574,0.000
1691171862.206,14.648,-766.602,-66.895,44.434,0.000
1691171862.210,36.133,-799.805,-62.012,42.969,0.000
1691171862.214,62.012,5.371,-59.570,40.527,0.000
1691171862.218,36.133,62.988,-57.129,24.414,0.000
1691171862.222,7.812,-695.801,-60.059,9.277,0.000
1691171862.226,14.648,-1000.000,-62.012,22.461,0.000
1691171862.230,7.324,-586.914,-43.945,41.016,0.000
1691171862.234,-6.348,65.430,-46.875,18.555,0.000
1691171862.237,-7.812,-583.496,-62.500,3.906,0.000
1691171862.241,16.113,-1000.000,-62.500,-9.766,0.000
1691171862.245,17.090,-337.402,-48.340,10.742,0.000
1691171862.249,-4.883,355.469,-40.527,22.949,0.000
1691171862.253,-8.789,-395.508,-50.781,-7.812,0.000
1691171862.257,-11.719,-1000.000,-52.246,7.812,0.000
1691171862.261,-14.648,-545.410,-44.922,21.484,0.000
1691171862.265,5.371,287.598,-36.133,3.418,0.000
1691171862.269,0.977,-214.355,-34.668,-13.672,0.000
1691171862.273,-15.625,-1000.000,-39.551,-6.348,0.000
1691171862.277,-1.953,-919.434,-34.180,5.859,0.000
1691171862.280,26.367,-50.293,-37.109,16.602,0.000
1691171862.284,3.906,-107.422,-43.945,-3.906,0.000
1691171862.288,-14.160,-959.961,-43.457,-24.414,0.000
1691171862.292,-6.836,-983.398,-38.574,-0.488,0.000
1691171862.296,-22.949,-306.152,-37.598,17.090,0.000
1691171862.300,-28.809,-84.961,-36.621,-3.906,0.000
1691171862.304,-46.875,-817.871,-41.016,-34.668,0.000
1691171862.308,-25.879,-1000.000,-35.156,-27.832,0.000
1691171862.312,14.160,-356.934,-25.391,4.883,0.000
1691171862.316,-10.254,77.148,-37.109,-3.906,0.000
1691171862.320,-45.898,-745.117,-56.152,-41.016,0.000
1691171862.323,-26.855,-1000.000,-65.430,-38.086,0.000
1691171862.327,12.207,-587.891,-51.758,19.531,0.000
1691171862.331,-14.160,-217.773,-35.156,27.832,0.000
1691171862.335,-66.895,-866.211,-42.480,-35.645,0.000
1691171862.339,-54.688,-1000.000,-32.715,-41.504,0.000
1691171862.343,-15.625,-846.680,-27.344,-12.695,0.000
1691171862.347,-39.062,-268.555,-40.527,-6.836,0.000
1691171862.351,-41.504,-414.551,-44.434,-21.484,0.000
1691171862.355,3.418,-1000.000,-38.086,-35.156,0.000
1691171862.359,7.324,-1000.000,-29.785,-46.387,0.000
1691171862.362,-18.066,-558.105,-21.973,-9.766,0.000
1691171862.366,-29.785,-407.227,-22.461,6.836,0.000
1691171862.370,-44.434,-925.293,-32.715,-16.602,0.000
1691171862.374,-29.297,-1000.000,-37.598,-30.273,0.000
1691171862.378,21.484,-1000.000,-38.086,17.578,0.000
1691171862.382,19.043,-477.051,-40.039,14.160,0.000
1691171862.386,-19.043,-497.559,-33.203,-39.551,0.000
1691171862.390,-27.344,-1000.000,-24.902,-33.203,0.000
1691171862.394,0.977,-771.484,-24.902,9.277,0.000
1691171862.398,8.789,-172.852,-25.879,18.066,0.000
1691171862.402,-22.949,-456.055,-29.785,-28.809,0.000
1691171862.405,-49.316,-998.047,-40.527,-43.945,0.000
1691171862.409,-38.574,-930.664,-37.598,-20.996,0.000
1691171862.413,1.953,-307.129,-27.344,0.488,0.000
1691171862.417,-0.488,-385.254,-29.785,-6.348,0.000
1691171862.421,-31.250,-983.887,-31.250,-17.090,0.000
1691171862.425,-28.320,-1000.000,-26.367,-10.254,0.000
1691171862.429,8.789,-354.980,-20.508,17.090,0.000
1691171862.433,-3.906,138.184,-20.996,1.465,0.000
1691171862.437,-30.273,-633.301,-32.715,-33.203,0.000
1691171862.441,-26.367,-1000.000,-33.203,-31.738,0.000
1691171862.445,-19.043,-608.887,-33.691,-15.625,0.000
1691171862.448,-13.184,49.316,-43.945,-4.883,0.000
1691171862.452,-11.230,-559.570,-48.340,-23.438,0.000
1691171862.456,7.324,-1000.000,-40.039,-27.344,0.000
1691171862.460,4.395,-900.391,-35.156,2.441,0.000
1691171862.464,-39.062,-411.133,-34.668,38.086,0.000
1691171862.468,-51.270,-604.004,-29.785,19.531,0.000
1691171862.472,-28.809,-1000.000,-36.621,0.488,0.000
1691171862.476,-16.113,-934.082,-35.156,-1.953,0.000
1691171862.480,-3.418,-308.105,-31.250,-0.488,0.000
1691171862.484,10.254,-288.574,-50.293,-4.395,0.000
1691171862.488,-4.883,-863.281,-56.641,-21.973,0.000
1691171862.491,3.418,-1000.000,-39.062,-8.789,0.000
1691171862.495,5.859,-726.074,-18.555,21.973,0.000
1691171862.499,-22.949,-271.484,-28.320,16.602,0.000
1691171862.503,-33.691,-654.785,-42.480,-10.254,0.000
1691171862.507,-47.852,-1000.000,-45.410,-16.602,0.000
1691171862.511,-13.184,-900.391,-54.688,2.441,0.000
1691171862.515,8.301,-626.465,-58.105,17.090,0.000
1691171862.519,-21.973,-688.477,-56.641,5.371,0.000
1691171862.523,11.719,-1000.000,-34.668,-18.066,0.000
1691171862.527,28.320,-998.047,-28.320,-4.395,0.000
1691171862.530,-2.930,-152.344,-37.598,-9.766,0.000
1691171862.534,-14.648,-34.180,-46.387,-28.809,0.000
1691171862.538,-1.465,-881.836,-44.922,-25.391,0.000
1691171862.542,-1.465,-1000.000,-49.805,-46.875,0.000
1691171862.546,0.000,-173.340,-66.895,-42.480,0.000
1691171862.550,0.488,99.121,-47.363,-36.621,0.000
1691171862.554,-5.859,-797.852,-39.062,-50.781,0.000
1691171862.558,-7.324,-1000.000,-25.391,-15.137,0.000
1691171862.562,-2.441,-512.695,-19.531,48.828,0.000
1691171862.566,20.020,297.363,-45.410,40.527,0.000
1691171862.570,-37.598,-308.594,-58.594,-35.645,0.000
1691171862.573,-82.520,-1000.000,-55.176,-64.453,0.000
1691171862.577,-81.543,-674.316,-65.430,-51.270,0.000
1691171862.581,-85.449,270.508,-75.195,-73.730,0.000
1691171862.585,-113.770,-296.387,-83.496,-125.977,0.000
1691171862.589,-132.812,-1000.000,-83.496,-147.461,0.000
1691171862.593,-120.605,-785.645,-83.496,-125.488,0.000
1691171862.597,-121.094,140.625,-94.238,-124.512,0.000
1691171862.601,-131.836,-125.488,-104.004,-160.645,0.000
1691171862.605,-127.441,-1000.000,-123.535,-162.598,0.000
1691171862.609,-129.883,-947.266,-124.512,-146.484,0.000
1691171862.612,-92.773,-47.363,-106.934,-117.676,0.000
1691171862.616,-89.355,72.754,-101.562,-111.816,0.000
1691171862.620,-110.840,-768.066,-96.680,-127.441,0.000
1691171862.624,-105.469,-960.449,-86.426,-127.441,0.000
1691171862.628,-59.082,-418.457,-71.289,-85.938,0.000
1691171862.632,-24.902,65.430,-67.871,-45.410,0.000
1691171862.636,-49.805,-427.246,-81.055,-73.242,0.000
1691171862.640,-57.617,-905.762,-86.426,-87.402,0.000
1691171862.644,-37.109,-635.254,-89.355,-51.270,0.000
1691171862.648,-11.230,-156.250,-89.355,-15.625,0.000
1691171862.652,-20.508,-499.512,-80.566,-40.527,0.000
1691171862.655,-21.484,-972.168,-67.383,-59.570,0.000
1691171862.659,-2.441,-923.340,-60.547,-39.551,0.000
1691171862.663,20.996,-573.242,-63.477,-18.066,0.000
1691171862.667,-13.672,-383.301,-62.012,-22.949,0.000
1691171862.671,-39.062,-710.938,-61.523,-49.316,0.000
1691171862.675,0.000,-1000.000,-57.129,-40.527,0.000
1691171862.679,0.000,-636.719,-51.270,-13.184,0.000
1691171862.683,0.000,-76.172,-52.246,-9.277,0.000
1691171862.687,0.000,-622.070,-48.828,-21.973,0.000
1691171862.691,0.000,-1000.000,-50.781,-32.715,0.000
1691171862.695,0.000,-752.441,-43.945,-4.883,0.000
1691171862.698,0.000,-145.020,-25.391,23.926,0.000
1691171862.702,0.000,-418.457,-39.062,1.465,0.000
1691171862.706,0.000,-1000.000,-52.246,-30.273,0.000
1691171862.710,0.000,-845.215,-47.363,-19.531,0.000
1691171862.714,0.000,47.363,-47.852,7.812,0.000
1691171862.718,0.000,-48.828,-42.480,-5.371,0.000
1691171862.722,-24.902,-916.992,-35.156,-34.180,0.000
1691171862.726,-20.508,-958.984,-28.809,-33.691,0.000
1691171862.730,6.836,-59.570,-26.367,-2.930,0.000
1691171862.734,5.859,116.211,-25.879,6.348,0.000
1691171862.738,-13.184,-764.160,-18.555,-15.137,0.000
1691171862.741,-27.344,-1000.000,-28.809,-30.273,0.000
1691171862.745,-0.488,-586.914,-35.645,-13.184,0.000
1691171862.749,19.043,-122.070,-37.109,-6.836,0.000
1691171862.753,0.488,-697.754,-44.434,-15.137,0.000
1691171862.757,-19.531,-1000.000,-33.691,-30.762,0.000
1691171862.761,-22.461,-549.805,-10.254,-28.320,0.000
1691171862.765,3.418,194.824,-18.066,6.348,0.000
1691171862.769,-1.465,-398.926,-42.480,-10.254,0.000
1691171862.773,-37.109,-1000.000,-39.551,-28.809,0.000
1691171862.777,-54.199,-801.270,-32.227,-39.551,0.000
1691171862.781,-20.020,-72.266,-19.531,-11.230,0.000
1691171862.784,14.648,-242.188,-16.602,6.836,0.000
1691171862.788,-11.719,-924.316,-36.621,-35.156,0.000
1691171862.792,-48.340,-999.023,-36.621,-49.805,0.000
1691171862.796,-27.832,-565.918,-20.996,-13.672,0.000
1691171862.800,-7.812,-542.969,-18.066,-2.441,0.000
1691171862.804,-26.367,-791.992,-24.902,-37.598,0.000
1691171862.808,-21.973,-940.918,-23.438,-40.527,0.000
1691171862.812,3.906,-581.543,-21.484,-4.883,0.000
1691171862.816,-19.531,88.379,-29.297,-2.441,0.000
1691171862.820,-12.207,-227.539,-35.156,-34.180,0.000
1691171862.823,-8.789,-938.477,-30.762,-26.367,0.000
1691171862.827,-45.410,-781.250,-20.508,0.488,0.000
1691171862.831,-26.855,48.340,-19.531,4.883,0.000
1691171862.835,-24.902,-347.168,-27.344,-9.277,0.000
1691171862.839,-37.598,-1000.000,-27.344,-28.320,0.000
1691171862.843,-23.926,-1000.000,-23.438,-17.090,0.000
1691171862.847,-4.883,-304.688,-21.484,9.277,0.000
1691171862.851,-0.977,143.555,-23.438,-15.137,0.000
1691171862.855,-15.625,-796.387,-24.902,-34.668,0.000
1691171862.859,-24.902,-1000.000,-34.668,-33.691,0.000
1691171862.863,-0.488,-63.477,-34.668,-2.930,0.000
1691171862.866,-12.207,197.754,-33.203,-2.930,0.000
1691171862.870,-36.621,-758.301,-44.922,-31.738,0.000
1691171862.874,-25.391,-1000.000,-36.621,-8.301,0.000
1691171862.878,-13.184,-403.809,-13.184,4.883,0.000
1691171862.882,-16.602,114.258,-8.301,-13.184,0.000
1691171862.886,-5.371,-508.789,-22.949,-27.832,0.000
1691171862.890,4.883,-1000.000,-37.109,-28.320,0.000
1691171862.894,-25.879,-654.785,-35.156,3.906,0.000
1691171862.898,-25.879,331.055,-21.973,33.691,0.000
1691171862.902,-31.250,-135.742,-27.344,-26.855,0.000
1691171862.905,-42.969,-1000.000,-29.297,-69.824,0.000
1691171862.909,-13.672,-970.215,-23.926,-40.527,0.000
1691171862.913,-3.418,-138.672,-17.578,-10.742,0.000
1691171862.917,-14.648,11.719,-18.066,-30.273,0.000
1691171862.921,-20.020,-703.125,-27.344,-42.969,0.000
1691171862.925,-33.691,-933.594,-35.156,-22.949,0.000
1691171862.929,-20.996,-400.879,-32.715,-8.789,0.000
1691171862.933,-10.742,-337.402,-29.785,-10.742,0.000
1691171862.937,-36.133,-980.469,-37.109,-35.156,0.000
1691171862.941,-48.828,-949.707,-49.805,-35.645,0.000
1691171862.945,-20.508,-530.273,-30.273,-6.348,0.000
1691171862.948,9.766,80.078,-17.578,21.973,0.000
1691171862.952,10.254,-221.680,-26.367,5.859,0.000
1691171862.956,0.000,-873.535,-23.438,-59.082,0.000
1691171862.960,0.000,-872.559,-18.066,-78.125,0.000
1691171862.964,0.000,-217.285,-11.719,-59.082,0.000
1691171862.968,0.000,-191.406,-20.020,-106.445,0.000
1691171862.972,0.000,-718.262,-28.809,-138.672,0.000
1691171862.976,0.000,-1000.000,-20.996,-127.441,0.000
1691171862.980,0.000,-605.957,-2.441,-125.977,0.000
1691171862.984,0.000,51.758,0.000,-150.879,0.000
1691171862.988,0.000,-498.047,-19.531,-182.129,0.000
1691171862.991,0.000,-1000.000,-32.227,-179.199,0.000
1691171862.995,0.000,-375.977,-15.137,-146.484,0.000
1691171862.999,0.000,336.426,-3.906,-125.488,0.000
1691171863.003,-122.070,-361.328,-6.836,-115.723,0.000
1691171863.007,-121.582,-1000.000,-8.301,-103.516,0.000
1691171863.011,-97.168,-579.102,-12.695,-82.520,0.000
1691171863.015,-74.707,318.848,-25.391,-66.406,0.000
1691171863.019,-60.547,-172.363,-25.879,-82.031,0.000
1691171863.023,-65.918,-1000.000,-18.066,-87.891,0.000
1691171863.027,-86.914,-939.941,-17.578,-69.824,0.000
1691171863.031,-59.570,-100.098,-15.625,-45.898,0.000
1691171863.034,-42.480,9.277,-23.926,-43.945,0.000
1691171863.038,-42.480,-892.090,-32.227,-46.387,0.000
1691171863.042,-26.367,-979.492,-26.855,-42.480,0.000
1691171863.046,10.254,16.602,-20.508,-22.461,0.000
1691171863.050,-30.273,246.094,-31.738,-23.926,0.000
1691171863.054,-50.781,-776.367,-39.551,-42.969,0.000
1691171863.058,-23.438,-1000.000,-32.715,-42.480,0.000
1691171863.062,-24.414,-273.926,-32.227,-14.160,0.000
1691171863.066,-19.531,229.492,-39.062,-6.836,0.000
1691171863.070,-36.133,-617.188,-38.086,-48.340,0.000
1691171863.074,-51.270,-1000.000,-40.527,-62.500,0.000
1691171863.077,-30.273,-694.824,-30.762,-23.438,0.000
1691171863.081,-0.977,-208.984,-20.020,0.000,0.000
1691171863.085,-14.648,-677.734,-33.691,-18.066,0.000
1691171863.089,-40.039,-945.312,-42.969,-43.457,0.000
1691171863.093,-26.367,-672.852,-39.062,-28.809,0.000
1691171863.097,-16.602,-42.480,-30.762,-11.719,0.000
1691171863.101,-29.785,14.160,-28.320,-32.715,0.000
1691171863.105,-39.551,-635.254,-34.180,-53.711,0.000
1691171863.109,-53.711,-937.012,-30.762,-32.715,0.000
1691171863.113,-10.742,-396.973,-22.461,15.625,0.000
1691171863.117,4.395,-93.750,-28.320,-5.371,0.000
1691171863.120,-51.758,-748.047,-34.668,-65.918,0.000
1691171863.124,-69.336,-1000.000,-25.391,-86.914,0.000
1691171863.128,-60.059,-960.449,-20.020,-49.805,0.000
1691171863.132,-66.895,-431.152,-21.484,-34.668,0.000
1691171863.136,-76.660,-301.270,-28.809,-74.219,0.000
1691171863.140,-61.523,-894.043,-37.598,-82.031,0.000
1691171863.144,-31.250,-680.664,-30.273,-62.988,0.000
1691171863.148,-22.461,58.594,-21.973,-23.438,0.000
1691171863.152,-64.453,-122.559,-49.805,-45.410,0.000
1691171863.156,-57.129,-793.945,-62.012,-81.543,0.000
1691171863.159,-39.062,-893.066,-29.297,-57.129,0.000
1691171863.163,-49.316,-123.047,-16.113,-27.344,0.000
1691171863.167,-45.898,-108.398,-23.926,-29.297,0.000
1691171863.171,-51.270,-861.816,-24.414,-45.410,0.000
1691171863.175,-50.781,-1000.000,-22.461,-55.664,0.000
1691171863.179,-35.156,-167.969,-28.320,-39.551,0.000
1691171863.183,-38.086,410.156,-31.250,-23.438,0.000
1691171863.187,-43.945,-477.539,-22.949,-25.879,0.000
1691171863.191,-36.133,-1000.000,-20.020,-13.672,0.000
1691171863.195,-11.719,-399.902,-24.414,-11.719,0.000
1691171863.199,-16.113,434.082,-23.438,-25.391,0.000
1691171863.202,-37.598,-260.742,-32.715,-26.855,0.000
1691171863.206,-44.434,-1000.000,-40.527,-36.133,0.000
1691171863.210,-41.016,-822.754,-39.551,-42.480,0.000
1691171863.214,-25.879,-78.613,-28.809,-24.902,0.000
1691171863.218,-25.391,-344.238,-31.738,-25.879,0.000
1691171863.222,-32.715,-1000.000,-36.133,-34.180,0.000
1691171863.226,-38.574,-799.805,-29.297,-30.762,0.000
1691171863.230,-12.695,-23.926,-28.809,-12.207,0.000
1691171863.234,-1.465,37.598,-25.879,-12.695,0.000
1691171863.238,-13.672,-599.609,-24.902,-34.180,0.000
1691171863.242,-6.836,-984.863,-23.926,-45.410,0.000
1691171863.245,5.859,-616.211,-22.949,-44.922,0.000
1691171863.249,14.648,18.066,-37.598,-62.012,0.000
1691171863.253,0.488,-378.906,-41.504,-78.613,0.000
1691171863.257,-13.672,-1000.000,-33.691,-73.242,0.000
1691171863.261,1.465,-860.352,-47.852,-42.969,0.000
1691171863.265,8.301,-417.480,-41.992,-5.371,0.000
1691171863.269,-30.273,-379.883,-24.902,-17.578,0.000
1691171863.273,-58.594,-756.836,-26.855,-46.387,0.000
1691171863.277,-42.480,-883.301,-31.250,-35.156,0.000
1691171863.281,-29.785,-97.656,-25.879,-8.789,0.000
1691171863.284,-32.715,114.258,-18.555,-22.461,0.000
1691171863.288,-51.758,-749.512,-26.367,-49.316,0.000
1691171863.292,-56.641,-1000.000,-31.250,-43.457,0.000
1691171863.296,-56.641,-212.891,-22.949,-7.812,0.000
1691171863.300,-52.734,50.781,-26.855,-20.508,0.000
1691171863.304,-57.129,-802.734,-41.016,-42.480,0.000
1691171863.308,-61.523,-1000.000,-43.945,-39.062,0.000
1691171863.312,-46.875,-533.691,-40.039,-23.438,0.000
1691171863.316,-31.738,290.527,-33.691,-11.230,0.000
1691171863.320,-23.438,-271.973,-30.762,-31.250,0.000
1691171863.324,-22.949,-1000.000,-34.668,-42.480,0.000
1691171863.327,-19.043,-699.707,-25.391,-28.320,0.000
1691171863.331,-16.602,217.285,-17.090,-5.371,0.000
1691171863.335,-39.062,-315.430,-32.715,-25.879,0.000
1691171863.339,-62.500,-1000.000,-41.992,-56.641,0.000
1691171863.343,-53.223,-820.801,-28.320,-33.203,0.000
1691171863.347,-40.039,70.801,-24.902,-22.949,0.000
1691171863.351,-30.762,-137.207,-39.062,-38.086,0.000
1691171863.355,-22.949,-1000.000,-39.062,-37.109,0.000
1691171863.359,-14.160,-996.094,-25.391,-40.039,0.000
1691171863.363,-13.184,-120.117,-23.926,-23.438,0.000
1691171863.366,-41.992,63.477,-35.156,-19.531,0.000
1691171863.370,-59.082,-791.016,-36.621,-42.480,0.000
1691171863.374,-62.012,-1000.000,-29.785,-42.969,0.000
1691171863.378,-43.457,-419.922,-20.508,-17.090,0.000
1691171863.382,-18.555,108.887,-26.367,4.395,0.000
1691171863.386,-12.207,-375.488,-36.621,-19.531,0.000
1691171863.390,17.578,-934.570,-38.574,-37.598,0.000
1691171863.394,35.156,-662.598,-32.227,-5.371,0.000
1691171863.398,-0.977,-107.910,-19.531,1.953,0.000
1691171863.402,-20.996,-391.602,-21.484,-12.695,0.000
1691171863.406,-22.949,-811.523,-30.762,-5.371,0.000
1691171863.409,-0.488,-826.172,-34.180,6.836,0.000
1691171863.413,10.254,-524.902,-33.203,20.020,0.000
1691171863.417,-1.953,-209.961,-36.133,13.672,0.000
1691171863.421,13.184,-476.562,-37.109,11.719,0.000
1691171863.425,17.578,-951.172,-37.109,19.531,0.000
1691171863.429,10.254,-575.195,-34.668,35.645,0.000
1691171863.433,46.387,106.934,-41.504,50.781,0.000
1691171863.437,37.109,-294.922,-46.875,24.414,0.000
1691171863.441,-7.812,-961.426,-35.645,1.465,0.000
1691171863.445,20.508,-786.621,-31.738,31.250,0.000
1691171863.449,37.109,-32.715,-42.969,52.246,0.000
1691171863.452,14.160,-178.711,-45.898,32.715,0.000
1691171863.456,20.996,-933.105,-34.180,20.508,0.000
1691171863.460,22.949,-839.355,-32.227,27.832,0.000
1691171863.464,6.836,196.289,-33.203,42.480,0.000
1691171863.468,10.742,40.039,-35.156,23.438,0.000
1691171863.472,27.832,-913.574,-40.039,12.695,0.000
1691171863.476,8.789,-860.840,-36.133,20.020,0.000
1691171863.480,-11.719,73.730,-35.156,57.129,0.000
1691171863.484,18.066,371.094,-40.039,46.875,0.000
1691171863.488,5.859,-574.707,-39.062,8.789,0.000
1691171863.492,18.066,-1000.000,-32.715,2.930,0.000
1691171863.495,20.996,-369.629,-34.180,12.695,0.000
1691171863.499,-6.348,386.719,-45.898,23.438,0.000
1691171863.503,-11.719,-488.770,-50.781,-0.977,0.000
1691171863.507,-5.371,-1000.000,-45.898,-6.348,0.000
1691171863.511,20.996,-386.719,-39.062,3.418,0.000
1691171863.515,6.348,348.145,-31.738,20.508,0.000
1691171863.519,-23.926,-187.988,-33.203,3.906,0.000
1691171863.523,-8.789,-959.473,-37.109,-12.207,0.000
1691171863.527,-28.809,-887.695,-42.480,-1.465,0.000
1691171863.531,-20.996,-108.398,-40.527,6.836,0.000
1691171863.534,-5.371,2.930,-38.574,0.488,0.000
1691171863.538,-32.715,-761.719,-34.180,-9.277,0.000
1691171863.542,-6.348,-1000.000,-29.297,1.953,0.000
1691171863.546,34.668,-429.199,-38.574,21.973,0.000
1691171863.550,-12.207,-307.129,-43.457,12.695,0.000
1691171863.554,-71.289,-569.336,-43.945,-38.574,0.000
1691171863.558,-34.180,-736.328,-50.293,-40.039,0.000
1691171863.562,23.438,-380.371,-41.504,17.090,0.000
1691171863.566,38.574,372.559,-30.762,32.227,0.000
1691171863.570,15.137,72.754,-39.062,2.441,0.000
1691171863.574,-11.719,-633.301,-44.922,-16.602,0.000
1691171863.577,-13.672,-607.910,-35.645,10.742,0.000
1691171863.581,13.184,194.824,-31.738,38.086,0.000
1691171863.585,37.598,21.484,-41.992,12.207,0.000
1691171863.589,17.578,-762.695,-42.969,-4.883,0.000
1691171863.593,2.441,-1000.000,-34.668,17.578,0.000
1691171863.597,2.930,-166.504,-30.762,44.922,0.000
1691171863.601,-6.836,580.566,-37.109,17.090,0.000
1691171863.605,-12.207,-256.836,-44.922,-23.438,0.000
1691171863.609,-16.113,-739.258,-38.086,-3.418,0.000
1691171863.613,14.160,91.309,-35.645,36.133,0.000
1691171863.617,1.953,504.883,-45.898,10.254,0.000
1691171863.620,5.859,-419.434,-43.945,-22.461,0.000
1691171863.624,4.883,-881.348,-43.457,-20.996,0.000
1691171863.628,-12.695,-107.422,-42.480,9.766,0.000
1691171863.632,7.324,453.613,-40.039,20.508,0.000
1691171863.636,-12.207,-349.609,-40.527,-4.395,0.000
1691171863.640,-32.715,-1000.000,-39.062,-8.301,0.000
1691171863.644,-4.395,-489.258,-41.016,-3.418,0.000
1691171863.648,22.949,552.246,-38.086,11.719,0.000
1691171863.652,-14.160,125.000,-43.945,7.324,0.000
1691171863.656,-26.367,-718.262,-52.734,-2.441,0.000
1691171863.660,29.297,-499.512,-44.434,12.695,0.000
1691171863.663,55.176,368.652,-40.039,28.320,0.000
1691171863.667,-3.906,295.898,-41.504,-7.324,0.000
1691171863.671,-31.738,-543.945,-43.945,-42.480,0.000
1691171863.675,-33.203,-716.309,-44.922,-35.156,0.000
1691171863.679,-26.367,-216.309,-46.387,-11.719,0.000
1691171863.683,-9.277,-73.730,-41.016,14.648,0.000
1691171863.687,-0.977,-576.172,-47.852,24.414,0.000
1691171863.691,-0.977,-916.016,-54.688,1.465,0.000
1691171863.695,-27.344,-591.309,-46.387,-27.832,0.000
1691171863.699,-21.973,-273.926,-46.875,-0.488,0.000
1691171863.702,-23.926,-633.301,-50.293,-6.348,0.000
1691171863.706,-34.668,-749.023,-55.176,-20.020,0.000
1691171863.710,-18.066,-844.727,-48.340,21.484,0.000
1691171863.714,-16.113,-147.949,-28.809,21.973,0.000
1691171863.718,-30.762,45.410,-33.203,-33.691,0.000
1691171863.722,-48.828,-695.312,-40.039,-72.754,0.000
1691171863.726,-41.992,-1000.000,-41.504,-42.480,0.000
1691171863.730,-3.906,-574.707,-44.434,8.789,0.000
1691171863.734,7.324,116.699,-47.363,0.000,0.000
1691171863.738,-21.484,-435.547,-48.828,-26.855,0.000
1691171863.742,-25.879,-1000.000,-49.805,-33.203,0.000
1691171863.745,-22.461,-486.328,-46.387,-8.301,0.000
1691171863.749,-49.316,114.746,-53.223,-4.395,0.000
1691171863.753,-65.918,-393.555,-62.500,-38.086,0.000
1691171863.757,-57.617,-979.980,-59.082,-56.641,0.000
1691171863.761,-43.945,-566.406,-56.641,-31.738,0.000
1691171863.765,-6.836,322.266,-61.523,0.488,0.000
1691171863.769,-3.906,-76.172,-71.289,-24.414,0.000
1691171863.773,-20.020,-968.750,-67.383,-41.016,0.000
1691171863.777,-24.902,-838.379,-58.105,-22.461,0.000
1691171863.781,-15.625,173.340,-61.523,-4.395,0.000
1691171863.785,-25.879,170.898,-70.801,-33.691,0.000
1691171863.788,-54.688,-806.641,-74.219,-47.852,0.000
1691171863.792,-49.805,-920.898,-66.406,-25.391,0.000
1691171863.796,-35.156,100.586,-56.641,14.160,0.000
1691171863.800,-27.344,361.816,-56.641,-12.695,0.000
1691171863.804,-30.762,-695.312,-58.594,-59.570,0.000
1691171863.808,-18.555,-1000.000,-55.176,-33.691,0.000
1691171863.812,10.254,-254.883,-53.223,-3.418,0.000
1691171863.816,-17.578,368.652,-57.129,-12.695,0.000
1691171863.820,-60.547,-484.863,-61.523,-30.273,0.000
1691171863.824,-63.965,-1000.000,-59.082,-47.852,0.000
1691171863.827,-33.691,-354.004,-50.293,-41.016,0.000
1691171863.831,-28.320,288.086,-42.480,3.906,0.000
1691171863.835,-51.758,-448.242,-55.664,-8.301,0.000
1691171863.839,-34.668,-796.387,-57.617,-35.156,0.000
1691171863.843,-22.461,-386.230,-40.039,-20.020,0.000
1691171863.847,-50.781,263.672,-36.133,6.348,0.000
1691171863.851,-46.875,363.281,-40.527,-20.508,0.000
1691171863.855,-24.414,-291.504,-49.805,-54.688,0.000
1691171863.859,-34.180,-684.570,-55.664,-27.832,0.000
1691171863.863,-32.715,-101.074,-52.246,-4.395,0.000
1691171863.867,-37.598,302.246,-53.711,-30.273,0.000
1691171863.870,-36.133,-294.922,-61.035,-54.199,0.000
1691171863.874,-66.406,-532.715,-62.988,-44.434,0.000
1691171863.878,-62.012,-495.605,-53.223,6.836,0.000
1691171863.882,-23.438,145.020,-50.781,9.766,0.000
1691171863.886,-38.086,340.332,-53.711,-35.156,0.000
1691171863.890,-33.203,-447.266,-56.641,-55.664,0.000
1691171863.894,-16.113,-380.371,-55.664,-53.223,0.000
1691171863.898,-19.531,431.152,-55.176,-20.020,0.000
1691171863.902,-35.645,373.047,-58.105,-27.344,0.000
1691171863.906,-35.645,-372.559,-59.082,-45.898,0.000
1691171863.910,-16.602,-472.168,-61.523,-35.645,0.000
1691171863.913,-29.297,351.562,-59.082,-0.977,0.000
1691171863.917,-45.898,458.984,-60.547,-12.207,0.000
1691171863.921,-45.410,-379.883,-61.035,-50.293,0.000
1691171863.925,-34.180,-860.840,-63.965,-30.273,0.000
1691171863.929,-19.043,186.523,-63.965,-4.883,0.000
1691171863.933,-38.086,967.285,-67.383,-25.391,0.000
1691171863.937,-68.848,96.680,-73.730,-58.105,0.000
1691171863.941,-57.617,-515.137,-81.055,-67.871,0.000
1691171863.945,-14.648,143.066,-80.078,-26.855,0.000
1691171863.949,-13.184,931.152,-72.266,-12.695,0.000
1691171863.953,-24.414,325.684,-75.195,-50.781,0.000
1691171863.956,-17.090,-411.133,-72.266,-62.012,0.000
1691171863.960,-3.906,-317.383,-67.871,-59.570,0.000
1691171863.964,16.602,438.965,-67.383,-10.254,0.000
1691171863.968,-0.488,10.742,-67.383,4.883,0.000
1691171863.972,-28.809,-882.324,-70.801,-63.965,0.000
1691171863.976,-33.203,-317.383,-70.312,-65.430,0.000
1691171863.980,-20.996,536.621,-65.430,-5.371,0.000
1691171863.984,-30.273,625.977,-64.941,-7.812,0.000
1691171863.988,-58.594,-0.488,-60.059,-27.344,0.000
1691171863.992,-62.012,-416.016,-61.035,-15.137,0.000
1691171863.995,-24.902,-16.602,-60.059,-20.020,0.000
1691171863.999,-25.391,690.918,-59.082,-22.461,0.000
1691171864.003,-69.336,234.863,-54.199,-32.227,0.000
1691171864.007,-52.734,-500.000,-44.434,-43.457,0.000
1691171864.011,-48.340,-306.152,-46.387,-28.809,0.000
1691171864.015,-51.758,251.953,-39.062,-9.766,0.000
1691171864.019,-36.133,348.633,-41.992,-27.832,0.000
1691171864.023,-42.969,-81.055,-49.316,-41.016,0.000
1691171864.027,-34.668,-269.531,-42.480,-28.809,0.000
1691171864.031,-20.996,549.316,-37.109,-5.859,0.000
1691171864.035,-47.363,847.168,-36.133,-1.465,0.000
1691171864.038,-63.477,82.031,-39.062,-51.270,0.000
1691171864.042,-44.922,-386.230,-24.902,-67.383,0.000
1691171864.046,-31.738,385.254,-8.301,-27.344,0.000
1691171864.050,-31.250,908.203,-14.648,-14.160,0.000
1691171864.054,-35.156,45.410,-19.043,-38.086,0.000
1691171864.058,-27.344,-880.371,-17.090,-53.223,0.000
1691171864.062,-19.531,-310.547,-9.766,-20.996,0.000
1691171864.066,-23.438,-993.652,-4.883,-14.648,0.000
1691171864.070,-59.570,486.328,-11.230,-35.156,0.000
1691171864.074,-72.754,-322.266,-10.742,-36.133,0.000
1691171864.077,-54.688,124.512,-8.301,-21.484,0.000
1691171864.081,-18.066,923.828,-4.883,-7.324,0.000
1691171864.085,-4.395,480.469,-6.348,-15.625,0.000
1691171864.089,-46.387,-324.707,-8.789,-38.086,0.000
1691171864.093,-63.965,-54.199,-9.277,-56.152,0.000
1691171864.097,-36.621,803.711,-10.742,-38.574,0.000
1691171864.101,-21.973,592.773,-4.883,-21.484,0.000
1691171864.105,-42.969,-424.805,-3.418,-34.668,0.000
1691171864.109,-43.945,-287.598,-13.672,-42.969,0.000
1691171864.113,-19.043,651.855,-11.230,-21.973,0.000
1691171864.117,-23.438,734.863,-1.465,-13.672,0.000
1691171864.120,-37.598,72.266,15.625,-36.621,0.000
1691171864.124,-31.738,-97.656,18.555,-37.598,0.000
1691171864.128,0.000,402.344,10.742,-6.836,0.000
1691171864.132,0.000,918.457,9.766,0.977,0.000
1691171864.136,0.000,435.059,12.207,-36.133,0.000
1691171864.140,0.000,-220.215,12.695,-51.758,0.000
1691171864.144,0.000,96.680,10.742,-38.574,0.000
1691171864.148,0.000,759.766,15.625,-20.996,0.000
1691171864.152,0.000,495.605,18.555,-38.086,0.000
1691171864.156,0.000,24.902,25.391,-56.641,0.000
1691171864.160,0.000,24.414,28.320,-49.805,0.000
1691171864.163,0.000,396.973,28.809,-14.160,0.000
1691171864.167,0.000,590.332,32.227,-1.953,0.000
1691171864.171,0.000,153.809,22.949,-35.645,0.000
1691171864.175,-14.648,-211.914,12.695,-36.133,0.000
1691171864.179,-16.113,221.191,26.855,-9.766,0.000
1691171864.183,-48.340,845.703,34.668,-18.555,0.000
1691171864.187,-54.688,481.445,28.320,-44.922,0.000
1691171864.191,-36.133,-251.953,25.391,-61.523,0.000
1691171864.195,-30.762,-90.332,26.367,-31.250,0.000
1691171864.199,-36.621,613.770,28.809,-1.465,0.000
1691171864.202,-41.016,491.211,28.809,-25.879,0.000
1691171864.206,-39.062,-333.496,28.809,-50.781,0.000
1691171864.210,-11.230,-587.402,29.297,-39.551,0.000
1691171864.214,2.441,625.488,35.645,-20.508,0.000
1691171864.218,-23.926,906.250,35.156,-38.086,0.000
1691171864.222,-30.273,-52.246,25.879,-44.922,0.000
1691171864.226,-30.273,-249.512,21.484,-48.828,0.000
1691171864.230,-26.367,636.230,24.414,-17.090,0.000
1691171864.234,-2.930,912.598,26.367,-15.625,0.000
1691171864.238,-34.668,19.043,22.949,-52.734,0.000
1691171864.242,-54.688,-620.117,20.508,-50.781,0.000
1691171864.245,-18.066,152.832,20.996,-18.555,0.000
1691171864.249,11.719,956.543,21.484,0.977,0.000
1691171864.253,-12.695,-155.273,12.207,-26.367,0.000
1691171864.257,-30.762,-829.102,9.277,-31.738,0.000
1691171864.261,-17.578,185.547,12.695,-14.160,0.000
1691171864.265,-28.809,932.617,9.766,-0.977,0.000
1691171864.269,-35.156,518.066,5.371,-15.625,0.000
1691171864.273,-25.391,-270.508,12.695,-35.156,0.000
1691171864.277,-25.391,-125.977,14.648,-33.691,0.000
1691171864.281,-15.625,769.531,12.695,-25.391,0.000
1691171864.285,-17.578,667.969,9.277,-38.574,0.000
1691171864.288,-53.223,-168.457,2.441,-45.410,0.000
1691171864.292,-59.570,-407.227,4.395,-40.039,0.000
1691171864.296,-36.133,250.977,5.371,-30.273,0.000
1691171864.300,-21.973,678.711,0.000,-27.832,0.000
1691171864.304,-28.320,102.051,0.488,-46.875,0.000
1691171864.308,-19.531,-300.293,0.977,-39.062,0.000
1691171864.312,-0.488,25.879,0.488,-0.977,0.000
1691171864.316,-3.418,358.398,-0.488,-10.254,0.000
1691171864.320,-48.828,366.699,-2.441,-47.852,0.000
1691171864.324,-67.871,-128.418,-2.441,-52.734,0.000
1691171864.328,-33.203,-62.988,4.883,-33.691,0.000
1691171864.331,-1.465,806.641,10.254,-1.465,0.000
1691171864.335,-17.578,514.160,2.441,-14.648,0.000
1691171864.339,-37.598,-355.957,1.465,-61.523,0.000
1691171864.343,-23.926,-736.328,3.418,-44.434,0.000
1691171864.347,-6.836,92.285,5.859,-8.789,0.000
1691171864.351,-35.156,922.363,-0.977,-31.738,0.000
1691171864.355,-47.852,121.582,-9.766,-37.598,0.000
1691171864.359,-26.367,-415.039,-13.672,-39.551,0.000
1691171864.363,0.000,319.824,-9.766,-28.809,0.000
1691171864.367,0.000,858.887,0.488,-22.949,0.000
1691171864.370,0.000,83.008,0.977,-47.852,0.000
1691171864.374,0.000,-416.504,-4.883,-54.688,0.000
1691171864.378,0.000,217.773,-3.906,-19.531,0.000
1691171864.382,0.000,901.367,1.465,11.719,0.000
1691171864.386,0.000,205.078,-0.977,-26.367,0.000
1691171864.390,0.000,-779.297,-2.930,-39.062,0.000
1691171864.394,0.000,-167.480,3.906,-16.602,0.000
1691171864.398,0.000,954.590,4.395,-2.441,0.000
1691171864.402,0.000,615.234,-6.348,-31.738,0.000
1691171864.406,0.000,-105.957,-8.789,-57.129,0.000
1691171864.410,-32.227,48.828,0.488,-36.133,0.000
1691171864.413,-11.719,776.855,6.836,-18.066,0.000
1691171864.417,-20.996,693.359,6.836,-24.414,0.000
1691171864.421,-13.672,18.555,5.371,-41.992,0.000
1691171864.425,-10.742,-196.777,3.906,-43.457,0.000
1691171864.429,-14.160,344.238,7.812,-5.859,0.000
1691171864.433,-22.949,392.578,19.531,22.949,0.000
1691171864.437,-27.344,-253.906,20.508,-17.578,0.000
1691171864.441,-25.879,-107.422,17.578,-54.688,0.000
1691171864.445,-32.227,347.656,27.832,-31.738,0.000
1691171864.449,10.742,945.312,21.973,-18.066,0.000
1691171864.452,24.414,655.273,10.742,-35.645,0.000
1691171864.456,-37.109,57.617,9.766,-48.340,0.000
1691171864.460,-22.949,-78.613,17.578,-37.598,0.000
1691171864.464,-4.395,582.520,32.227,-38.086,0.000
1691171864.468,-45.898,826.660,28.809,-47.363,0.000
1691171864.472,-32.715,66.406,15.625,-50.781,0.000
1691171864.476,-18.066,-405.273,22.949,-42.480,0.000
1691171864.480,-33.691,159.180,30.762,-10.254,0.000
1691171864.484,-32.227,846.191,29.297,-7.812,0.000
1691171864.488,-47.852,411.133,33.203,-52.734,0.000
1691171864.492,-44.922,-371.582,36.133,-72.754,0.000
1691171864.495,-37.598,23.438,28.320,-60.059,0.000
1691171864.499,-59.570,-978.516,30.762,-62.500,0.000
1691171864.503,-75.195,597.168,29.297,-76.172,0.000
1691171864.507,-111.328,-316.895,14.160,-122.559,0.000
1691171864.511,-138.184,6.348,39.551,-131.348,0.000
1691171864.515,-103.516,993.652,78.125,-108.398,0.000
1691171864.519,-96.191,715.332,93.750,-146.973,0.000
1691171864.523,-174.805,-319.336,99.121,-213.867,0.000
1691171864.527,-226.562,-427.734,112.793,-239.258,0.000
1691171864.531,-218.262,634.277,125.977,-223.145,0.000
1691171864.535,-246.582,893.066,139.160,-258.301,0.000
1691171864.538,-276.367,-194.336,143.555,-296.387,0.000
1691171864.542,-264.160,-362.793,154.785,-287.598,0.000
1691171864.546,-227.051,686.035,183.594,-246.582,0.000
1691171864.550,-231.445,943.359,151.367,-243.652,0.000
1691171864.554,-274.902,105.957,117.676,-316.406,0.000
1691171864.558,-257.324,-291.016,148.438,-315.918,0.000
1691171864.562,-232.422,500.000,158.203,-273.438,0.000
1691171864.566,-232.910,975.586,151.367,-267.578,0.000
1691171864.570,-231.445,276.367,140.625,-229.980,0.000
1691171864.574,-229.004,-246.582,123.047,-210.449,0.000
1691171864.578,-205.566,396.484,133.789,-218.262,0.000
1691171864.581,-157.227,916.992,125.977,-176.758,0.000
1691171864.585,-130.859,271.973,88.867,-178.711,0.000
1691171864.589,-129.395,-6.836,76.660,-175.293,0.000
1691171864.593,-94.727,262.207,78.125,-138.184,0.000
1691171864.597,-62.012,807.129,81.543,-101.562,0.000
1691171864.601,-86.914,944.824,64.941,-100.098,0.000
1691171864.605,-95.703,459.473,62.012,-96.191,0.000
1691171864.609,-69.824,176.270,56.152,-83.008,0.000
1691171864.613,-40.527,641.602,47.363,-45.410,0.000
1691171864.617,0.488,913.574,35.156,-23.926,0.000
1691171864.620,12.695,430.664,15.625,-44.922,0.000
1691171864.624,3.906,204.102,11.719,-22.949,0.000
1691171864.628,24.902,203.613,10.742,32.227,0.000
1691171864.632,41.016,698.242,3.418,67.871,0.000
1691171864.636,41.504,913.086,-17.578,46.387,0.000
1691171864.640,59.082,282.715,-28.809,19.043,0.000
1691171864.644,42.969,329.590,-23.438,30.762,0.000
1691171864.648,51.270,959.473,-25.391,58.594,0.000
1691171864.652,109.375,942.383,-42.969,40.039,0.000
1691171864.656,84.473,363.281,-50.781,23.438,0.000
1691171864.660,63.477,141.113,-43.945,38.086,0.000
1691171864.663,114.258,743.652,-44.922,75.684,0.000
1691171864.667,123.047,-944.336,-57.617,59.570,0.000
1691171864.671,97.656,438.965,-68.848,28.809,0.000
1691171864.675,83.984,-321.289,-62.012,64.941,0.000
1691171864.679,82.031,449.219,-51.758,96.191,0.000
1691171864.683,67.871,-875.977,-53.223,91.797,0.000
1691171864.687,30.762,564.941,-57.617,56.152,0.000
1691171864.691,35.645,168.945,-54.199,65.430,0.000
1691171864.695,66.406,647.949,-51.758,92.285,0.000
1691171864.699,53.223,-965.820,-57.129,90.332,0.000
1691171864.703,30.273,688.477,-72.754,66.406,0.000
1691171864.706,50.293,229.980,-70.312,36.133,0.000
1691171864.710,41.992,253.906,-57.129,34.180,0.000
1691171864.714,21.484,887.207,-62.500,59.082,0.000
1691171864.718,41.016,559.082,-71.777,65.430,0.000
1691171864.722,19.043,-113.281,-68.359,43.945,0.000
1691171864.726,2.441,354.004,-63.477,41.016,0.000
1691171864.730,34.668,839.844,-55.176,53.223,0.000
1691171864.734,27.832,953.125,-52.246,49.316,0.000
1691171864.738,17.090,664.062,-59.082,24.902,0.000
1691171864.742,34.668,166.016,-60.547,20.508,0.000
1691171864.746,35.156,449.219,-53.223,49.316,0.000
1691171864.749,12.695,-947.754,-50.293,53.223,0.000
1691171864.753,-0.977,568.359,-55.176,33.691,0.000
1691171864.757,-9.766,-83.984,-50.781,30.273,0.000
1691171864.761,4.883,133.789,-41.504,46.387,0.000
1691171864.765,10.254,711.914,-58.105,31.738,0.000
1691171864.769,37.109,833.496,-62.500,-13.184,0.000
1691171864.773,14.160,462.891,-40.039,-6.348,0.000
1691171864.777,-45.410,330.078,-35.645,0.488,0.000
1691171864.781,-32.715,805.664,-36.621,19.531,0.000
1691171864.785,-0.488,974.609,-35.645,16.602,0.000
1691171864.788,-3.418,481.934,-43.945,-8.301,0.000
1691171864.792,-14.160,76.660,-46.875,-17.578,0.000
1691171864.796,0.488,595.703,-36.621,7.324,0.000
1691171864.800,7.812,-990.723,-33.203,21.484,0.000
1691171864.804,-23.438,442.383,-41.016,-4.395,0.000
1691171864.808,-35.156,-529.297,-37.598,-10.254,0.000
1691171864.812,11.230,-119.629,-24.414,8.301,0.000
1691171864.816,-0.488,-928.223,-21.484,0.977,0.000
1691171864.820,-18.066,747.559,-29.785,-34.180,0.000
1691171864.824,4.883,55.664,-34.668,-30.762,0.000
1691171864.828,0.488,404.297,-33.691,5.371,0.000
1691171864.831,-30.273,-937.500,-28.809,8.301,0.000
1691171864.835,-54.688,696.289,-37.109,-20.508,0.000
1691171864.839,-52.246,60.547,-38.574,-43.457,0.000
1691171864.843,-29.297,274.902,-26.367,-36.621,0.000
1691171864.847,-28.809,956.543,-35.645,-16.113,0.000
1691171864.851,-32.715,799.316,-43.945,-28.320,0.000
1691171864.855,-4.883,-152.344,-39.062,-30.273,0.000
1691171864.859,-10.742,-51.270,-24.414,-20.996,0.000
1691171864.863,-10.742,757.812,-16.113,-20.020,0.000
1691171864.867,-25.391,910.156,-21.484,-23.926,0.000
1691171864.870,-50.781,529.297,-27.832,-41.992,0.000
1691171864.874,-39.551,260.742,-35.645,-44.434,0.000
1691171864.878,-17.090,595.215,-25.391,-3.906,0.000
1691171864.882,-24.902,985.352,-8.301,20.020,0.000
1691171864.886,-11.719,728.027,-21.484,-25.879,0.000
1691171864.890,13.672,296.387,-30.762,-52.734,0.000
1691171864.894,-31.250,473.145,-22.461,-35.156,0.000
1691171864.898,-40.039,940.430,-25.879,-16.602,0.000
1691171864.902,-55.176,713.867,-30.762,-22.949,0.000
1691171864.906,-58.594,300.781,-29.297,-34.668,0.000
1691171864.910,-20.996,280.762,-24.414,-17.578,0.000
1691171864.913,0.977,730.957,-22.949,-6.836,0.000
1691171864.917,-29.297,945.801,-28.809,-21.484,0.000
1691171864.921,-32.227,387.695,-30.273,-40.039,0.000
1691171864.925,-30.273,34.668,-33.691,-47.852,0.000
1691171864.929,-38.574,291.992,-29.785,-15.137,0.000
1691171864.933,-12.207,865.234,-22.461,-14.160,0.000
1691171864.937,-16.602,770.020,-26.367,-45.898,0.000
1691171864.941,-32.227,98.633,-29.297,-40.527,0.000
1691171864.945,-40.039,177.734,-27.344,-23.926,0.000
1691171864.949,-14.648,916.504,-22.461,-6.348,0.000
1691171864.953,-25.879,901.367,-25.879,-29.297,0.000
1691171864.956,-43.945,62.500,-36.621,-38.574,0.000
1691171864.960,-32.715,-250.488,-24.902,-13.672,0.000
1691171864.964,-7.812,756.348,-12.207,-22.461,0.000
1691171864.968,-24.414,994.629,-24.902,-32.227,0.000
1691171864.972,-31.738,173.340,-26.367,-26.855,0.000
1691171864.976,-18.066,-129.395,-18.555,-26.855,0.000
1691171864.980,-45.898,647.949,-24.902,4.883,0.000
1691171864.984,-70.801,-964.844,-27.344,9.766,0.000
1691171864.988,-49.316,391.113,-26.367,-33.203,0.000
1691171864.992,-30.762,-259.277,-26.367,-35.156,0.000
1691171864.996,-15.625,331.055,-23.926,-13.184,0.000
1691171864.999,-27.344,-882.812,-25.879,-27.344,0.000
1691171865.003,-60.547,155.273,-31.250,-32.227,0.000
1691171865.007,-65.430,-527.344,-34.180,-18.066,0.000
1691171865.011,-63.965,419.922,-30.762,-31.250,0.000
1691171865.015,-42.969,-990.723,-21.973,-27.344,0.000
1691171865.019,-32.715,677.734,-20.996,-35.645,0.000
1691171865.023,-23.926,-65.918,-24.902,-55.664,0.000
1691171865.027,-34.180,-52.246,-24.902,-38.574,0.000
1691171865.031,-48.340,776.855,-24.414,-18.555,0.000
1691171865.035,-44.922,823.730,-26.855,-41.504,0.000
1691171865.039,-45.410,29.297,-30.273,-42.480,0.000
1691171865.042,-36.621,-123.535,-27.832,-41.504,0.000
1691171865.046,-35.645,596.680,-29.297,-23.438,0.000
1691171865.050,-47.363,611.328,-39.062,-18.066,0.000
1691171865.054,-41.504,295.898,-42.969,-45.410,0.000
1691171865.058,-34.180,104.980,-46.387,-52.734,0.000
1691171865.062,-23.926,335.449,-42.480,-23.926,0.000
1691171865.066,0.000,953.125,-32.227,1.465,0.000
1691171865.070,0.000,760.742,-37.598,-39.062,0.000
1691171865.074,0.000,131.836,-35.156,-63.477,0.000
1691171865.078,0.000,152.344,-28.320,-46.875,0.000
1691171865.081,0.000,883.301,-31.738,-24.414,0.000
1691171865.085,0.000,668.945,-35.645,-42.480,0.000
1691171865.089,0.000,-94.727,-27.832,-57.129,0.000
1691171865.093,0.000,-519.531,-21.973,-24.902,0.000
1691171865.097,0.000,191.895,-17.578,-12.207,0.000
1691171865.101,0.000,-984.863,-17.090,-49.316,0.000
1691171865.105,0.000,338.867,-22.949,-68.359,0.000
1691171865.109,0.000,-145.996,-22.949,-71.289,0.000
1691171865.113,-35.645,544.434,-19.531,-45.410,0.000
1691171865.117,-49.316,986.816,-26.367,-26.367,0.000
1691171865.121,-45.410,217.773,-35.645,-53.711,0.000
1691171865.124,-49.805,-271.484,-33.203,-53.223,0.000
1691171865.128,-45.898,414.551,-23.926,-20.996,0.000
1691171865.132,-23.438,-960.938,-17.090,-19.043,0.000
1691171865.136,-57.129,437.500,-21.973,-61.035,0.000
1691171865.140,-87.891,-583.984,-28.320,-62.012,0.000
1691171865.144,-58.105,-182.617,-21.973,-48.828,0.000
1691171865.148,-6.348,929.199,-19.043,-31.250,0.000
1691171865.152,-20.996,667.480,-28.809,-36.133,0.000
1691171865.156,-54.199,29.785,-37.109,-61.523,0.000
1691171865.160,-39.551,200.684,-38.574,-49.316,0.000
1691171865.164,-14.160,794.434,-33.691,-20.996,0.000
1691171865.167,-24.414,807.129,-32.227,-34.668,0.000
1691171865.171,-60.059,265.137,-37.598,-64.941,0.000
1691171865.175,-47.852,-26.367,-34.180,-62.012,0.000
1691171865.179,-31.738,424.316,-26.367,-42.480,0.000
1691171865.183,-60.059,556.152,-27.832,-14.648,0.000
1691171865.187,-61.035,-13.672,-39.551,-16.113,0.000
1691171865.191,-36.621,22.461,-42.480,-47.852,0.000
1691171865.195,-16.602,382.812,-39.062,-30.762,0.000
1691171865.199,-5.371,891.113,-36.133,-14.160,0.000
1691171865.203,-43.457,673.828,-32.715,-39.551,0.000
1691171865.206,-68.848,104.980,-29.785,-49.805,0.000
1691171865.210,-50.293,-8.789,-29.785,-62.988,0.000
1691171865.214,-23.438,650.391,-26.855,-29.297,0.000
1691171865.218,-15.625,878.906,-26.855,2.930,0.000
1691171865.222,-36.621,288.574,-44.922,-40.039,0.000
1691171865.226,-49.805,-252.441,-48.340,-60.547,0.000
1691171865.230,-36.621,76.660,-36.133,-21.484,0.000
1691171865.234,-43.457,850.098,-41.992,-31.738,0.000
1691171865.238,-64.453,560.547,-46.387,-67.871,0.000
1691171865.242,-58.594,-137.207,-41.992,-56.641,0.000
1691171865.246,-11.719,263.184,-37.109,-18.555,0.000
1691171865.249,-8.789,-931.152,-38.086,-19.531,0.000
1691171865.253,-45.898,532.715,-43.945,-41.016,0.000
1691171865.257,-51.758,-356.934,-43.945,-53.711,0.000
1691171865.261,-45.410,108.398,-40.039,-57.129,0.000
1691171865.265,-28.809,-981.934,-36.133,-29.297,0.000
1691171865.269,-39.062,761.230,-40.527,-38.574,0.000
1691171865.273,-41.504,-199.707,-46.387,-54.199,0.000
1691171865.277,-12.695,-285.156,-40.527,-24.902,0.000
1691171865.281,-27.344,724.121,-32.715,-13.672,0.000
1691171865.285,-46.387,936.035,-41.504,-54.688,0.000
1691171865.289,-43.945,-229.004,-50.293,-63.965,0.000
1691171865.292,-25.391,-476.562,-40.039,-51.270,0.000
1691171865.296,-14.160,665.039,-28.809,-31.738,0.000
1691171865.300,-33.203,954.102,-36.133,-22.461,0.000
1691171865.304,-49.805,212.891,-46.387,-44.434,0.000
1691171865.308,-21.973,-290.039,-41.992,-51.758,0.000
1691171865.312,9.766,297.852,-35.645,-27.832,0.000
1691171865.316,-10.742,942.383,-33.691,0.000,0.000
1691171865.320,-20.996,323.730,-38.086,-16.602,0.000
1691171865.324,-38.574,-248.047,-45.410,-46.387,0.000
1691171865.328,-69.824,317.871,-39.551,-45.410,0.000
1691171865.331,-47.852,893.555,-33.691,-40.039,0.000
1691171865.335,4.395,310.059,-36.621,-54.199,0.000
1691171865.339,-13.672,-8.301,-35.645,-58.594,0.000
1691171865.343,-19.043,278.809,-29.297,-43.945,0.000
1691171865.347,28.320,770.996,-26.855,-41.504,0.000
1691171865.351,1.953,933.594,-33.203,-49.316,0.000
1691171865.355,-21.484,475.586,-35.156,-69.336,0.000
1691171865.359,-16.113,157.715,-28.809,-59.570,0.000
1691171865.363,-21.484,506.836,-24.902,-4.883,0.000
1691171865.367,-17.578,874.512,-31.738,-7.812,0.000
1691171865.371,-50.781,365.723,-27.344,-48.340,0.000
1691171865.374,-88.867,-146.973,-22.949,-60.547,0.000
1691171865.378,-63.965,-45.410,-28.809,-23.926,0.000
1691171865.382,-34.180,645.996,-17.090,-5.371,0.000
1691171865.386,-41.992,865.723,-12.695,-46.875,0.000
1691171865.390,-61.035,202.148,-17.090,-55.176,0.000
1691171865.394,-49.805,250.488,-15.625,-44.434,0.000
1691171865.398,-24.902,919.434,-18.555,-26.855,0.000
1691171865.402,-45.410,928.223,-26.855,-25.879,0.000
1691171865.406,-75.684,324.707,-27.344,-34.668,0.000
1691171865.410,-66.895,53.223,-16.113,-28.809,0.000
1691171865.414,-39.551,664.062,-6.348,10.742,0.000
1691171865.417,-32.715,-947.754,-12.207,-20.996,0.000
1691171865.421,-55.664,372.559,-19.043,-71.289,0.000
1691171865.425,-37.109,-391.602,-23.926,-49.805,0.000
1691171865.429,-23.438,442.871,-22.461,-15.625,0.000
1691171865.433,-39.551,-890.137,-17.578,-2.441,0.000
1691171865.437,-44.434,467.773,-20.508,-40.527,0.000
1691171865.441,0.000,32.715,-24.902,-56.641,0.000
1691171865.445,0.000,574.219,-18.555,-10.742,0.000
1691171865.449,0.000,-963.867,-12.695,15.625,0.000
1691171865.453,0.000,686.523,-25.879,-4.395,0.000
1691171865.457,0.000,174.316,-34.180,-47.363,0.000
1691171865.460,0.000,180.664,-20.020,-47.363,0.000
1691171865.464,0.000,892.578,-10.254,20.020,0.000
1691171865.468,0.000,531.250,-22.949,1.465,0.000
1691171865.472,0.000,-193.848,-31.250,-64.941,0.000
1691171865.476,0.000,243.652,-22.949,-66.895,0.000
1691171865.480,0.000,710.449,-18.066,-27.832,0.000
1691171865.484,0.000,977.539,-17.578,-2.930,0.000
1691171865.488,-21.973,704.590,-26.367,-42.480,0.000
1691171865.492,-6.348,150.879,-26.367,-63.477,0.000
1691171865.496,-14.648,414.062,-15.137,-13.672,0.000
1691171865.499,-62.500,-958.984,-22.949,-10.742,0.000
1691171865.503,-46.387,797.852,-33.203,-55.176,0.000
1691171865.507,-34.180,154.785,-33.203,-62.500,0.000
1691171865.511,-45.898,173.340,-29.785,-30.273,0.000
1691171865.515,-24.414,747.070,-27.344,5.859,0.000
1691171865.519,-15.625,875.977,-25.879,-31.738,0.000
1691171865.523,-35.156,526.367,-28.320,-69.824,0.000
1691171865.527,-42.969,335.449,-32.227,-30.273,0.000
1691171865.531,-9.277,785.645,-38.574,-10.254,0.000
1691171865.535,0.000,880.859,-41.992,-38.086,0.000
1691171865.539,0.000,454.590,-40.527,-62.988,0.000
1691171865.542,0.000,150.391,-33.691,-33.691,0.000
1691171865.546,0.000,594.727,-21.973,-0.977,0.000
1691171865.550,0.000,-999.512,-23.438,-16.602,0.000
1691171865.554,0.000,477.539,-29.785,-39.062,0.000
1691171865.558,0.000,-456.543,-26.855,-43.945,0.000
1691171865.562,0.000,-89.355,-28.320,-10.254,0.000
1691171865.566,0.000,-913.086,-34.180,-17.578,0.000
1691171865.570,0.000,713.379,-34.180,-59.082,0.000
1691171865.574,0.000,22.461,-38.574,-49.805,0.000
1691171865.578,0.000,380.371,-37.109,-15.137,0.000
1691171865.582,-6.348,-949.219,-34.180,-14.648,0.000
1691171865.585,-45.898,690.918,-33.691,-34.180,0.000
1691171865.589,-7.812,-145.996,-33.203,-45.898,0.000
1691171865.593,5.859,-2.930,-29.785,-47.852,0.000
1691171865.597,-27.344,891.113,-20.996,-24.414,0.000
1691171865.601,-25.879,816.895,-16.602,-11.230,0.000
1691171865.605,-33.203,-261.719,-21.484,-12.207,0.000
1691171865.609,-39.062,-227.539,-26.367,-29.785,0.000
1691171865.613,-26.367,706.055,-29.785,-25.391,0.000
1691171865.617,0.488,932.617,-34.668,-32.227,0.000
1691171865.621,-41.016,548.340,-38.086,-53.711,0.000
1691171865.624,-37.109,237.305,-31.738,-32.715,0.000
1691171865.628,-13.672,580.566,-26.855,-18.066,0.000
1691171865.632,-32.227,-1000.000,-33.203,-19.043,0.000
1691171865.636,-55.664,733.398,-28.809,-29.785,0.000
1691171865.640,-45.898,278.809,-27.344,-32.715,0.000
1691171865.644,20.508,294.922,-35.156,-21.484,0.000
1691171865.648,11.230,869.141,-29.297,-2.930,0.000
1691171865.652,-29.297,761.719,-22.461,-21.484,0.000
1691171865.656,-30.273,84.961,-22.949,-53.223,0.000
1691171865.660,-56.641,118.164,-22.461,-45.898,0.000
1691171865.664,-49.316,387.207,-20.996,-4.395,0.000
1691171865.667,-49.316,662.109,-21.484,-26.855,0.000
1691171865.671,-29.297,586.426,-29.785,-66.406,0.000
1691171865.675,-12.695,89.844,-41.504,-44.922,0.000
1691171865.679,-32.227,347.656,-39.551,-14.648,0.000
1691171865.683,-25.879,980.469,-28.320,-5.859,0.000
1691171865.687,-40.039,761.230,-30.762,-36.621,0.000
1691171865.691,-59.082,40.527,-36.621,-66.406,0.000
1691171865.695,-24.414,62.988,-41.016,-42.969,0.000
1691171865.699,-10.254,871.582,-38.086,-24.414,0.000
1691171865.703,-36.621,696.777,-35.645,-61.523,0.000
1691171865.707,-41.992,-193.848,-38.086,-64.453,0.000
1691171865.710,-29.297,-394.531,-29.785,-22.461,0.000
1691171865.714,-7.812,653.320,-28.809,-5.859,0.000
1691171865.718,-36.133,977.539,-32.715,-26.855,0.000
1691171865.722,-54.199,101.562,-38.574,-60.547,0.000
1691171865.726,-22.949,-87.402,-42.969,-70.312,0.000
1691171865.730,-11.230,720.703,-35.645,-41.016,0.000
1691171865.734,-5.371,993.652,-30.273,-41.016,0.000
1691171865.738,-37.109,210.938,-33.691,-50.781,0.000
1691171865.742,-67.871,-492.676,-35.645,-39.062,0.000
1691171865.746,-30.273,185.059,-26.367,-22.461,0.000
1691171865.750,-21.484,-889.648,-25.391,7.324,0.000
1691171865.753,-32.227,150.879,-37.109,-5.371,0.000
1691171865.757,-20.508,-746.582,-45.410,-39.062,0.000
1691171865.761,-18.066,231.445,-39.551,-39.551,0.000
1691171865.765,-18.066,-975.586,-34.180,-11.230,0.000
1691171865.769,-34.668,694.824,-34.180,-21.484,0.000
1691171865.773,-48.340,-23.926,-31.738,-49.805,0.000
1691171865.777,-48.340,33.203,-33.691,-30.762,0.000
1691171865.781,-15.137,844.727,-37.598,-11.230,0.000
1691171865.785,-30.762,893.555,-34.668,-48.340,0.000
1691171865.789,-39.062,112.793,-35.645,-51.270,0.000
1691171865.793,-5.371,-117.676,-38.574,-22.949,0.000
1691171865.796,-10.742,646.973,-40.039,-18.066,0.000
1691171865.800,-41.504,765.137,-38.574,-14.648,0.000
1691171865.804,-66.406,417.969,-34.180,-19.531,0.000
1691171865.808,-50.781,203.613,-42.480,-29.785,0.000
1691171865.812,6.836,373.535,-41.016,-29.297,0.000
1691171865.816,15.137,941.895,-36.133,-19.043,0.000
1691171865.820,-14.648,808.594,-39.551,-43.945,0.000
1691171865.824,-22.949,246.094,-38.086,-65.430,0.000
1691171865.828,-31.250,194.336,-38.086,-34.180,0.000
1691171865.832,-24.902,860.352,-36.621,0.488,0.000
1691171865.835,-32.227,716.309,-40.527,-26.367,0.000
1691171865.839,-49.805,6.348,-42.969,-62.500,0.000
1691171865.843,-62.988,-409.180,-42.480,-31.250,0.000
1691171865.847,-41.992,212.402,-39.062,14.160,0.000
1691171865.851,-27.832,-954.102,-33.203,-23.438,0.000
1691171865.855,-32.715,437.012,-36.621,-53.223,0.000
1691171865.859,-40.527,-97.168,-37.109,-40.039,0.000
1691171865.863,-46.387,549.316,-36.621,-21.484,0.000
1691171865.867,-5.859,983.398,-42.480,-29.297,0.000
1691171865.871,-27.832,264.648,-46.387,-44.922,0.000
1691171865.875,-80.078,-232.422,-42.969,-40.527,0.000
1691171865.878,-62.988,407.227,-33.691,-26.855,0.000
1691171865.882,-37.109,-963.867,-27.832,-26.367,0.000
1691171865.886,-56.152,436.523,-26.855,-27.344,0.000
1691171865.890,-51.270,-545.898,-32.227,-25.391,0.000
1691171865.894,25.391,-6.836,-40.527,-29.297,0.000
1691171865.898,5.371,-970.215,-38.574,7.324,0.000
1691171865.902,-67.383,644.531,-34.180,3.906,0.000
1691171865.906,-77.148,34.180,-36.133,-51.270,0.000
1691171865.910,-67.871,237.305,-35.156,-58.594,0.000
1691171865.914,-12.695,792.480,-26.855,-14.160,0.000
1691171865.918,14.648,852.051,-35.645,-18.066,0.000
1691171865.921,16.602,359.863,-40.039,-39.062,0.000
1691171865.925,-32.227,-156.738,-29.785,-24.414,0.000
1691171865.929,-61.035,366.211,-28.809,-2.930,0.000
1691171865.933,-18.066,706.543,-31.738,-12.207,0.000
1691171865.937,-28.320,76.660,-33.691,-42.969,0.000
1691171865.941,-46.875,39.062,-36.621,-45.898,0.000
1691171865.945,-24.902,437.012,-31.738,-18.555,0.000
1691171865.949,-8.789,979.980,-27.832,0.000,0.000
1691171865.953,-20.020,800.781,-35.156,-38.086,0.000
1691171865.957,-19.043,231.934,-42.480,-57.129,0.000
1691171865.960,-19.531,58.594,-41.016,-36.133,0.000
1691171865.964,-8.789,661.133,-34.668,-6.348,0.000
1691171865.968,-19.043,902.832,-37.109,-16.113,0.000
1691171865.972,-37.598,343.262,-38.086,-47.363,0.000
1691171865.976,-14.160,-223.633,-36.621,-46.875,0.000
1691171865.980,-18.066,-23.438,-39.551,-21.973,0.000
1691171865.984,-41.992,788.086,-37.109,-39.551,0.000
1691171865.988,-42.480,625.000,-34.668,-60.547,0.000
1691171865.992,-19.531,-101.562,-38.574,-48.828,0.000
1691171865.996,7.812,289.062,-30.762,-16.602,0.000
1691171866.000,-6.836,-941.406,-27.344,7.324,0.000
1691171866.003,0.000,771.484,-35.645,-43.945,0.000
1691171866.007,0.000,2.441,-31.250,-34.180,0.000
1691171866.011,0.000,209.961,-25.391,-4.395,0.000
1691171866.015,0.000,-979.980,-26.855,-25.391,0.000
1691171866.019,0.000,800.781,-30.762,-50.293,0.000
1691171866.023,0.000,-155.762,-36.621,-54.199,0.000
1691171866.027,0.000,-200.684,-31.738,-35.156,0.000
1691171866.031,0.000,786.133,-29.297,-5.371,0.000
1691171866.035,0.000,896.973,-33.203,-11.719,0.000
1691171866.039,0.000,-157.715,-28.320,-18.066,0.000
1691171866.043,0.000,-375.488,-30.273,-18.066,0.000
1691171866.046,0.000,674.316,-32.227,-11.719,0.000
1691171866.050,-55.176,944.336,-37.109,-25.879,0.000
1691171866.054,-35.645,176.270,-42.969,-46.875,0.000
1691171866.058,-27.344,-255.371,-37.598,-45.898,0.000
1691171866.062,-28.809,440.430,-29.785,-9.766,0.000
1691171866.066,-24.414,-996.582,-24.902,12.695,0.000
1691171866.070,-34.668,333.984,-28.809,-42.480,0.000
1691171866.074,-9.277,-342.773,-35.156,-58.105,0.000
1691171866.078,7.324,187.500,-39.551,-38.086,0.000
1691171866.082,19.531,907.227,-41.992,-34.180,0.000
1691171866.085,4.883,355.957,-44.922,-63.477,0.000
1691171866.089,-20.020,-39.551,-40.039,-93.750,0.000
1691171866.093,-10.254,47.363,-31.738,-64.941,0.000
1691171866.097,0.488,606.445,-31.250,-17.090,0.000
1691171866.101,-18.066,980.469,-30.273,-23.926,0.000
1691171866.105,-36.621,479.980,-32.715,-41.016,0.000
1691171866.109,-32.715,59.570,-29.785,-25.879,0.000
1691171866.113,-44.434,477.539,-27.832,-8.789,0.000
1691171866.117,-40.039,869.629,-43.945,-5.371,0.000
1691171866.121,-70.312,379.395,-46.387,-39.062,0.000
1691171866.125,-68.359,39.551,-33.691,-50.293,0.000
1691171866.128,-40.039,-132.324,-31.250,-22.461,0.000
1691171866.132,-50.293,478.516,-31.250,-22.949,0.000
1691171866.136,-50.781,821.289,-32.227,-53.711,0.000
1691171866.140,-59.570,33.203,-38.086,-51.758,0.000
1691171866.144,0.000,-37.598,-31.250,-22.461,0.000
1691171866.148,0.000,777.344,-34.668,-22.461,0.000
1691171866.152,0.000,721.680,-50.781,-38.086,0.000
1691171866.156,0.000,-96.680,-46.387,-39.062,0.000
1691171866.160,0.000,-188.477,-37.598,-52.246,0.000
1691171866.164,0.000,500.488,-33.691,-34.668,0.000
1691171866.168,0.000,955.566,-35.645,-24.902,0.000
1691171866.171,0.000,261.230,-46.387,-57.129,0.000
1691171866.175,0.000,-632.324,-39.551,-26.367,0.000
1691171866.179,0.000,215.820,-29.785,25.879,0.000
1691171866.183,0.000,-877.930,-32.715,-5.859,0.000
1691171866.187,0.000,451.660,-37.598,-41.992,0.000
1691171866.191,-26.855,-142.578,-38.086,-38.574,0.000
1691171866.195,-24.902,382.324,-31.250,-20.996,0.000
1691171866.199,1.465,-957.031,-31.250,-7.324,0.000
1691171866.203,-13.672,537.598,-42.969,-15.625,0.000
1691171866.207,-34.180,-191.895,-43.945,-40.039,0.000
1691171866.211,-1.953,-83.008,-35.645,-22.461,0.000
1691171866.214,13.672,779.297,-39.062,7.812,0.000
1691171866.218,-17.578,472.656,-45.898,-6.836,0.000
1691171866.222,-45.410,-356.934,-49.316,-33.691,0.000
1691171866.226,-32.715,152.344,-41.016,-41.016,0.000
1691171866.230,1.953,729.004,-37.598,-6.836,0.000
1691171866.234,-6.348,947.754,-47.852,-17.090,0.000
1691171866.238,-40.527,563.965,-41.504,-50.781,0.000
1691171866.242,-29.297,-40.527,-39.551,-49.316,0.000
1691171866.246,-28.320,269.043,-50.293,-15.137,0.000
1691171866.250,-30.273,-968.750,-50.781,-10.254,0.000
1691171866.253,-31.738,770.996,-44.922,-54.688,0.000
1691171866.257,-40.527,54.688,-44.434,-62.988,0.000
1691171866.261,-56.152,62.500,-41.992,-32.715,0.000
1691171866.265,-35.156,645.020,-40.527,-4.395,0.000
1691171866.269,2.441,803.223,-45.410,-14.160,0.000
1691171866.273,-16.113,413.086,-44.434,-40.527,0.000
1691171866.277,-47.363,197.754,-39.551,-39.062,0.000
1691171866.281,-18.555,672.852,-39.062,-3.418,0.000
1691171866.285,0.000,997.070,-44.434,-8.789,0.000
1691171866.289,0.000,581.543,-44.434,-24.414,0.000
1691171866.293,0.000,69.824,-47.852,-27.344,0.000
1691171866.296,0.000,522.461,-45.898,-27.832,0.000
1691171866.300,0.000,986.328,-39.551,-22.949,0.000
1691171866.304,0.000,462.402,-41.504,-32.715,0.000
1691171866.308,0.000,-491.699,-42.480,-27.344,0.000
1691171866.312,0.000,-165.039,-51.270,-11.230,0.000
1691171866.316,0.000,-951.172,-53.711,0.488,0.000
1691171866.320,0.000,729.980,-43.945,-19.043,0.000
1691171866.324,0.000,24.902,-36.621,-43.457,0.000
1691171866.328,0.000,341.797,-30.762,-40.039,0.000
1691171866.332,-5.371,-958.984,-31.250,-28.809,0.000
1691171866.336,-10.742,716.797,-40.039,-33.203,0.000
1691171866.339,-41.992,32.227,-37.598,-45.898,0.000
1691171866.343,-48.340,204.590,-44.922,-29.785,0.000
1691171866.347,-17.578,886.230,-45.410,-0.488,0.000
1691171866.351,-5.859,811.035,-33.203,-2.441,0.000
1691171866.355,-52.246,-169.922,-35.645,-17.090,0.000
1691171866.359,-69.336,-169.434,-38.086,-24.902,0.000
1691171866.363,-12.695,712.891,-35.156,-26.855,0.000
1691171866.367,-8.301,926.270,-38.086,-26.855,0.000
1691171866.371,-38.086,335.449,-40.039,-37.109,0.000
1691171866.375,-25.879,-78.125,-38.574,-35.645,0.000
1691171866.378,-13.672,449.219,-34.668,-7.324,0.000
1691171866.382,-13.672,998.535,-32.227,-3.906,0.000
1691171866.386,-28.320,752.930,-38.086,-32.227,0.000
1691171866.390,-14.648,262.207,-42.480,-34.668,0.000
1691171866.394,-5.859,368.652,-41.016,-22.461,0.000
1691171866.398,-10.742,870.117,-38.086,0.000,0.000
1691171866.402,-43.457,782.227,-41.992,-10.742,0.000
1691171866.406,-67.383,312.012,-42.969,-44.434,0.000
1691171866.410,-45.410,212.891,-43.457,-40.039,0.000
1691171866.414,-18.066,503.418,-44.434,-7.324,0.000
1691171866.418,7.812,841.797,-39.062,-15.625,0.000
1691171866.421,-15.137,621.582,-43.945,-46.387,0.000
1691171866.425,0.000,44.434,-44.434,-32.227,0.000
1691171866.429,0.000,301.270,-29.785,-1.953,0.000
1691171866.433,0.000,974.121,-32.227,-8.301,0.000
1691171866.437,0.000,796.387,-36.621,-21.973,0.000
1691171866.441,0.000,103.516,-37.109,-25.879,0.000
1691171866.445,0.000,43.945,-40.039,-16.602,0.000
1691171866.449,0.000,821.777,-34.668,-0.488,0.000
1691171866.453,0.000,927.734,-35.156,-32.715,0.000
1691171866.457,0.000,93.262,-38.574,-47.852,0.000
1691171866.461,0.000,-285.645,-40.527,-27.832,0.000
1691171866.464,0.000,691.406,-40.039,-16.602,0.000
1691171866.468,0.000,-998.535,-39.551,-31.738,0.000
1691171866.472,-55.664,187.988,-37.598,-32.715,0.000
1691171866.476,-23.926,-82.520,-38.574,-30.273,0.000
1691171866.480,1.953,672.852,-37.109,-23.438,0.000
1691171866.484,-28.320,919.922,-37.109,-19.043,0.000
1691171866.488,-25.391,228.516,-37.109,-33.691,0.000
1691171866.492,-18.555,-357.910,-27.832,-11.230,0.000
1691171866.496,-14.648,166.504,-24.902,13.184,0.000
1691171866.500,-7.812,-913.574,-28.320,-1.953,0.000
1691171866.503,-40.527,249.512,-31.250,-29.297,0.000
1691171866.507,-43.457,-525.879,-35.645,-42.969,0.000
1691171866.511,-19.531,386.230,-42.480,-23.926,0.000
1691171866.515,-29.297,-990.723,-43.457,-8.301,0.000
1691171866.519,-6.836,709.473,-37.598,-21.973,0.000
1691171866.523,-56.152,-5.859,-37.598,-20.996,0.000
1691171866.527,-58.594,6.836,-32.715,-18.066,0.000
1691171866.531,-13.672,825.195,-28.809,-1.953,0.000
1691171866.535,-12.207,854.492,-31.738,-4.883,0.000
1691171866.539,-37.598,160.645,-31.738,-26.367,0.000
1691171866.542,-25.391,-215.332,-34.668,-49.316,0.000
1691171866.546,-50.293,388.672,-32.715,-35.645,0.000
1691171866.550,-45.410,730.469,-35.156,-8.301,0.000
1691171866.554,-20.508,399.414,-41.016,-22.461,0.000
1691171866.558,-24.414,186.523,-34.668,-20.996,0.000
1691171866.562,-20.020,432.617,-25.391,7.812,0.000
1691171866.566,-33.691,962.402,-31.250,-3.418,0.000
1691171866.570,-24.414,821.289,-33.203,-34.668,0.000
1691171866.574,-30.273,227.051,-33.203,-34.180,0.000
1691171866.578,-59.082,181.641,-31.738,-29.785,0.000
1691171866.582,-21.484,888.184,-24.902,-15.625,0.000
1691171866.585,-14.160,738.770,-32.715,-21.973,0.000
1691171866.589,-37.598,33.691,-37.109,-44.434,0.000
1691171866.593,-4.883,-501.465,-34.668,-11.719,0.000
1691171866.597,13.672,88.867,-36.133,33.203,0.000
1691171866.601,-11.230,-946.289,-33.203,13.184,0.000
1691171866.605,-34.180,466.309,-38.086,-38.086,0.000
1691171866.609,-30.273,-106.445,-46.875,-56.641,0.000
1691171866.613,-10.254,507.324,-40.527,-30.273,0.000
1691171866.617,-12.207,-997.070,-36.621,-20.996,0.000
1691171866.621,-15.625,337.402,-36.133,-32.715,0.000
1691171866.625,-27.344,-181.152,-40.527,-26.855,0.000
1691171866.628,-14.648,361.816,-42.969,-0.488,0.000
1691171866.632,-2.930,-987.305,-40.527,1.953,0.000
1691171866.636,-14.160,506.348,-43.457,-42.969,0.000
1691171866.640,20.508,-511.719,-42.480,-21.973,0.000
1691171866.644,7.812,-22.949,-36.133,2.441,0.000
1691171866.648,-27.344,-979.492,-37.109,7.812,0.000
1691171866.652,-4.883,660.645,-42.480,-6.836,0.000
1691171866.656,-0.977,41.504,-41.992,-15.137,0.000
1691171866.660,0.000,188.965,-46.387,-13.184,0.000
1691171866.664,0.000,787.598,-44.922,2.930,0.000
1691171866.668,0.000,798.828,-35.645,17.090,0.000
1691171866.671,0.000,286.133,-35.156,-9.277,0.000
1691171866.675,0.000,-48.340,-36.621,-22.949,0.000
1691171866.679,0.000,344.238,-29.785,-13.184,0.000
1691171866.683,0.000,561.523,-32.227,-7.324,0.000
1691171866.687,0.000,-3.906,-44.434,-19.531,0.000
1691171866.691,0.000,56.152,-46.875,-30.273,0.000
1691171866.695,0.000,424.316,-39.062,-4.395,0.000
1691171866.699,0.000,952.637,-35.645,27.344,0.000
1691171866.703,0.000,758.789,-45.410,-13.672,0.000
1691171866.707,-11.719,55.176,-51.270,-43.457,0.000
1691171866.710,-34.180,-80.078,-49.316,-29.785,0.000
1691171866.714,-5.859,642.090,-46.875,-1.953,0.000
1691171866.718,-18.066,929.688,-44.922,-10.254,0.000
1691171866.722,-43.945,408.203,-43.457,-37.598,0.000
1691171866.726,-23.926,-150.879,-40.527,-25.391,0.000
1691171866.730,-15.137,272.949,-40.039,-2.930,0.000
1691171866.734,-20.996,972.168,-40.039,-5.859,0.000
1691171866.738,-24.902,642.578,-38.574,-19.043,0.000
1691171866.742,-19.531,-148.926,-40.527,-26.367,0.000
1691171866.746,0.000,-117.188,-43.945,-17.578,0.000
1691171866.750,-10.742,927.734,-34.180,-11.719,0.000
1691171866.753,-20.508,825.684,-29.297,-31.738,0.000
1691171866.757,13.672,-13.672,-32.715,-29.785,0.000
1691171866.761,-0.488,80.566,-29.785,-15.137,0.000
1691171866.765,-24.414,883.789,-27.832,-3.906,0.000
1691171866.769,-25.879,858.887,-27.832,-20.508,0.000
1691171866.773,-35.645,-83.496,-30.273,-42.480,0.000
1691171866.777,-35.156,-307.129,-38.086,-37.598,0.000
1691171866.781,-21.484,672.363,-36.621,-11.230,0.000
1691171866.785,-3.418,-999.512,-30.762,-11.230,0.000
1691171866.789,13.184,-99.121,-31.738,-31.738,0.000
1691171866.793,-0.488,-423.340,-38.574,-41.992,0.000
1691171866.796,-27.832,648.438,-39.062,-25.391,0.000
1691171866.800,-16.602,-999.512,-34.668,-13.184,0.000
1691171866.804,-21.973,249.512,-41.992,-31.250,0.000
1691171866.808,-30.762,-262.207,-39.062,-32.715,0.000
1691171866.812,5.859,424.805,-27.344,-9.277,0.000
1691171866.816,8.301,998.535,-28.809,21.484,0.000
1691171866.820,-30.273,415.527,-37.109,-5.859,0.000
1691171866.824,-47.363,-352.539,-45.898,-36.621,0.000
1691171866.828,-36.133,50.781,-40.527,-26.367,0.000
1691171866.832,-8.789,860.840,-37.109,-23.438,0.000
1691171866.836,-18.555,277.832,-37.598,-26.855,0.000
1691171866.839,-15.625,-68.359,-34.180,-23.438,0.000
1691171866.843,-15.625,240.234,-35.156,-26.367,0.000
1691171866.847,-28.320,740.723,-36.133,-10.254,0.000
1691171866.851,-30.762,944.336,-33.691,-6.836,0.000
1691171866.855,-28.320,462.891,-33.691,-23.926,0.000
1691171866.859,-4.883,74.219,-35.645,-19.043,0.000
1691171866.863,25.391,396.484,-32.227,-1.953,0.000
1691171866.867,18.066,817.383,-39.062,-9.277,0.000
1691171866.871,-9.766,391.602,-41.504,-44.434,0.000
1691171866.875,-18.066,-123.047,-30.762,-48.828,0.000
1691171866.878,19.043,-213.379,-22.949,-19.043,0.000
1691171866.882,25.391,506.836,-29.297,-14.648,0.000
1691171866.886,-17.090,899.902,-37.598,-48.828,0.000
1691171866.890,-6.348,162.109,-36.133,-44.922,0.000
1691171866.894,0.977,52.246,-37.598,-28.320,0.000
1691171866.898,-7.812,805.176,-29.297,13.184,0.000
1691171866.902,-8.301,923.828,-27.344,36.133,0.000
1691171866.906,-36.621,249.512,-36.621,-10.254,0.000
1691171866.910,-55.664,-157.715,-29.297,-25.391,0.000
1691171866.914,-26.367,511.230,-24.902,-8.789,0.000
1691171866.918,-19.531,913.086,-37.109,-23.438,0.000
1691171866.921,-52.734,192.871,-44.922,-53.711,0.000
1691171866.925,-62.988,-610.840,-41.504,-50.781,0.000
1691171866.929,-26.855,119.629,-41.504,-22.949,0.000
1691171866.933,-20.020,-895.508,-44.434,-28.809,0.000
1691171866.937,-58.594,490.723,-42.969,-59.082,0.000
1691171866.941,-60.059,-169.922,-41.992,-59.570,0.000
1691171866.945,-42.969,344.238,-41.016,-21.484,0.000
1691171866.949,-26.367,-994.629,-41.504,9.277,0.000
1691171866.953,-20.508,666.992,-39.551,-12.207,0.000
1691171866.957,-38.086,81.543,-39.551,-41.016,0.000
1691171866.961,-16.602,2.441,-37.598,-30.762,0.000
1691171866.964,10.742,753.906,-35.156,-3.906,0.000
1691171866.968,-4.883,535.156,-35.645,-6.836,0.000
1691171866.972,-36.621,-319.824,-42.480,-17.578,0.000
1691171866.976,-52.734,54.199,-48.828,-28.320,0.000
1691171866.980,-25.879,677.734,-46.875,-13.184,0.000
1691171866.984,-11.719,833.008,-45.898,-14.648,0.000
1691171866.988,0.000,342.285,-48.340,-64.453,0.000
1691171866.992,0.000,-116.211,-50.781,-56.641,0.000
1691171866.996,0.000,232.422,-52.734,-3.418,0.000
1691171867.000,0.000,-985.352,-51.270,-3.418,0.000
1691171867.004,0.000,730.957,-42.969,-36.621,0.000
1691171867.007,0.000,-46.387,-36.621,-52.734,0.000
1691171867.011,0.000,-8.789,-29.785,-35.156,0.000
1691171867.015,0.000,631.836,-30.762,-4.395,0.000
1691171867.019,0.000,811.523,-41.992,-19.043,0.000
1691171867.023,0.000,388.184,-45.410,-33.203,0.000
1691171867.027,0.000,83.496,-48.340,-36.621,0.000
1691171867.031,0.000,607.422,-50.293,-16.602,0.000
1691171867.035,-32.227,-1000.000,-43.457,-19.043,0.000
1691171867.039,-38.086,467.285,-47.363,-55.664,0.000
1691171867.043,-12.695,-131.348,-50.293,-63.477,0.000
1691171867.046,-0.488,437.988,-48.340,-37.109,0.000
1691171867.050,-24.414,-990.234,-47.363,-32.227,0.000
1691171867.054,-48.828,459.473,-46.387,-50.293,0.000
1691171867.058,-43.457,-533.691,-53.711,-50.293,0.000
1691171867.062,-27.344,-186.523,-57.129,-31.250,0.000
1691171867.066,-24.414,-944.824,-45.898,-9.277,0.000
1691171867.070,-20.020,801.270,-45.898,-43.457,0.000
1691171867.074,-19.531,77.148,-48.828,-60.547,0.000
1691171867.078,-23.926,278.320,-41.992,-26.367,0.000
1691171867.082,-16.113,-980.469,-34.668,9.277,0.000
1691171867.085,-21.973,720.703,-39.062,-21.484,0.000
1691171867.089,-26.367,15.137,-43.457,-68.359,0.000
1691171867.093,-8.301,145.020,-39.062,-49.805,0.000
1691171867.097,-5.859,850.586,-38.574,-14.648,0.000
1691171867.101,-45.898,840.332,-37.598,-24.414,0.000
1691171867.105,-54.688,-242.676,-48.828,-50.293,0.000
1691171867.109,-38.086,-263.184,-55.176,-49.316,0.000
1691171867.113,-29.297,685.547,-40.039,-36.621,0.000
1691171867.117,-32.715,933.105,-33.203,-23.438,0.000
1691171867.121,-33.691,443.359,-35.156,-30.273,0.000
1691171867.125,-19.531,4.883,-35.645,-32.715,0.000
1691171867.128,-6.348,438.477,-34.180,-32.227,0.000
1691171867.132,-10.254,976.562,-36.133,-28.320,0.000
1691171867.136,-30.762,741.699,-45.898,-29.785,0.000
1691171867.140,-61.035,284.668,-38.086,-47.363,0.000
1691171867.144,-49.805,354.004,-28.809,-37.109,0.000
1691171867.148,-9.766,825.684,-35.156,7.812,0.000
1691171867.152,-21.484,616.211,-39.551,-2.441,0.000
1691171867.156,-26.367,80.078,-37.598,-36.621,0.000
1691171867.160,-18.555,106.934,-32.227,-33.691,0.000
1691171867.164,-22.949,468.750,-33.203,5.859,0.000
1691171867.167,-14.160,792.969,-43.457,3.418,0.000
1691171867.171,-22.949,585.938,-45.898,-32.227,0.000
1691171867.175,-39.062,86.426,-40.039,-23.438,0.000
1691171867.179,-27.832,320.801,-37.598,-13.184,0.000
1691171867.183,0.000,975.098,-39.551,4.883,0.000
1691171867.187,14.160,765.625,-42.480,2.441,0.000
1691171867.191,-29.297,50.781,-27.832,-23.926,0.000
1691171867.195,-80.078,13.184,-20.996,-48.828,0.000
1691171867.199,-52.734,805.664,-18.555,-50.781,0.000
1691171867.203,-29.785,919.434,-22.949,-69.824,0.000
1691171867.207,-85.938,60.059,-25.879,-106.445,0.000
1691171867.210,-141.602,-275.391,-16.113,-103.027,0.000
1691171867.214,-130.371,712.402,-12.207,-97.656,0.000
1691171867.218,-130.371,-962.891,-10.254,-122.070,0.000
1691171867.222,-134.766,242.188,-8.301,-127.441,0.000
1691171867.226,-129.395,-83.008,-11.230,-108.398,0.000
1691171867.230,-95.703,662.109,-15.625,-82.031,0.000
1691171867.234,-64.941,-961.914,-9.277,-80.078,0.000
1691171867.238,-85.449,378.418,-8.789,-95.703,0.000
1691171867.242,-95.703,-402.344,-18.555,-88.379,0.000
1691171867.246,-80.078,155.273,-20.508,-54.199,0.000
1691171867.250,-73.242,-887.695,-16.113,-46.387,0.000
1691171867.253,-70.801,187.500,-17.090,-63.965,0.000
1691171867.257,-69.824,-624.023,-17.578,-63.965,0.000
1691171867.261,-71.777,254.883,-18.066,-50.293,0.000
1691171867.265,-40.039,946.777,-24.902,-26.367,0.000
1691171867.269,-43.945,711.914,-22.461,-34.668,0.000
1691171867.273,-66.406,-77.148,-14.648,-47.852,0.000
1691171867.277,-51.758,-70.801,-16.602,-49.316,0.000
1691171867.281,-31.250,790.527,-18.066,-31.250,0.000
1691171867.285,-33.691,793.945,-24.902,-21.973,0.000
1691171867.289,-57.617,40.527,-26.855,-53.223,0.000
1691171867.293,-59.082,-140.625,-17.090,-59.082,0.000
1691171867.296,-10.254,594.727,-20.020,-16.602,0.000
1691171867.300,9.277,727.051,-25.391,-18.555,0.000
1691171867.304,-26.855,403.320,-19.531,-47.363,0.000
1691171867.308,-44.434,239.258,-26.367,-44.922,0.000
1691171867.312,-41.992,364.746,-29.785,-11.719,0.000
1691171867.316,-27.832,955.078,-24.902,4.883,0.000
1691171867.320,-34.668,668.457,-22.949,-18.555,0.000
1691171867.324,-38.574,-12.695,-23.926,-31.738,0.000
1691171867.328,-22.461,95.703,-23.438,-20.996,0.000
1691171867.332,-1.953,810.059,-23.926,4.883,0.000
1691171867.336,-11.719,748.535,-23.438,-16.602,0.000
1691171867.339,-26.855,-107.422,-28.809,-43.945,0.000
1691171867.343,-36.133,-357.910,-32.227,-27.832,0.000
1691171867.347,-33.691,475.098,-22.461,8.301,0.000
1691171867.351,-29.785,-976.562,-31.250,-22.461,0.000
1691171867.355,-61.523,473.633,-47.363,-77.148,0.000
1691171867.359,-39.551,-532.227,-43.945,-62.500,0.000
1691171867.363,-2.441,-6.836,-37.598,-23.926,0.000
1691171867.367,-30.273,-950.684,-35.645,-18.555,0.000
1691171867.371,-48.828,434.570,-39.062,-39.062,0.000
1691171867.375,-52.246,-215.820,-38.086,-37.109,0.000
1691171867.378,-19.531,172.852,-33.691,-17.090,0.000
1691171867.382,3.418,990.723,-38.574,-4.883,0.000
1691171867.386,-44.922,593.262,-45.410,-28.320,0.000
1691171867.390,-53.223,-502.441,-41.016,-44.434,0.000
1691171867.394,-26.855,-93.262,-29.297,-28.809,0.000
1691171867.398,-25.391,983.887,-23.926,-9.766,0.000
1691171867.402,-36.133,734.863,-34.668,-35.156,0.000
1691171867.406,-40.527,154.785,-41.016,-60.059,0.000
1691171867.410,-40.039,153.809,-34.668,-40.527,0.000
1691171867.414,-29.297,691.406,-37.598,-8.789,0.000
1691171867.418,-12.695,880.371,-41.992,-18.066,0.000
1691171867.421,-32.715,436.523,-41.504,-49.805,0.000
1691171867.425,-58.594,71.289,-36.621,-41.992,0.000
1691171867.429,-39.551,434.570,-29.297,-35.156,0.000
1691171867.433,-19.531,623.535,-25.391,-31.738,0.000
1691171867.437,-11.719,68.359,-29.785,-26.367,0.000
1691171867.441,-27.832,82.520,-47.363,-30.273,0.000
1691171867.445,-49.805,425.781,-55.176,-23.926,0.000
1691171867.449,-20.020,956.543,-52.246,-14.648,0.000
1691171867.453,-18.555,840.820,-46.387,-29.297,0.000
1691171867.457,-36.621,290.039,-38.574,-56.641,0.000
1691171867.461,-21.973,39.551,-39.062,-51.270,0.000
1691171867.464,-4.395,616.211,-39.551,-18.555,0.000
1691171867.468,-30.273,912.598,-40.039,-7.812,0.000
1691171867.472,-39.551,369.141,-41.504,-12.695,0.000
1691171867.476,-2.441,-150.391,-45.410,-12.695,0.000
1691171867.480,-12.695,78.125,-37.109,5.859,0.000
1691171867.484,-38.574,891.113,-33.691,-24.902,0.000
1691171867.488,-32.715,498.047,-49.805,-68.848,0.000
1691171867.492,-33.203,-325.684,-50.293,-64.453,0.000
1691171867.496,-20.996,222.168,-44.922,-39.551,0.000
1691171867.500,-5.371,-951.172,-41.992,-18.555,0.000
1691171867.503,-18.066,747.070,-40.039,-27.344,0.000
1691171867.507,-15.137,-105.469,-38.086,-39.062,0.000
1691171867.511,-28.320,54.688,-37.109,-23.926,0.000
1691171867.515,-41.992,970.703,-39.551,-12.207,0.000
1691171867.519,-51.758,841.797,-44.434,-29.785,0.000
1691171867.523,-48.340,-132.324,-44.434,-29.297,0.000
1691171867.527,-11.230,-363.770,-45.898,-25.879,0.000
1691171867.531,-5.371,623.047,-46.387,-1.465,0.000
1691171867.535,-22.461,-993.652,-32.715,-11.719,0.000
1691171867.539,-31.250,-77.148,-33.691,-45.410,0.000
1691171867.543,-33.203,-663.086,-42.480,-31.250,0.000
1691171867.546,-24.414,323.730,-34.180,-20.020,0.000
1691171867.550,0.000,975.098,-24.902,-21.484,0.000
1691171867.554,0.000,259.766,-32.715,-30.762,0.000
1691171867.558,0.000,-310.547,-38.086,-37.109,0.000
1691171867.562,0.000,357.910,-36.621,-18.066,0.000
1691171867.566,0.000,-990.234,-31.738,-12.695,0.000
1691171867.570,0.000,358.887,-29.297,-47.363,0.000
1691171867.574,0.000,-259.766,-33.203,-51.758,0.000
1691171867.578,0.000,192.871,-34.180,-45.898,0.000
1691171867.582,0.000,826.172,-33.203,-8.789,0.000
1691171867.585,0.000,464.355,-30.762,-2.930,0.000
1691171867.589,0.000,11.719,-40.039,-42.480,0.000
1691171867.593,0.000,105.957,-34.668,-25.391,0.000
1691171867.597,15.625,588.379,-20.996,8.301,0.000
1691171867.601,-24.414,770.508,-29.297,-16.602,0.000
1691171867.605,-79.590,351.074,-36.133,-54.688,0.000
1691171867.609,-67.383,25.879,-24.414,-70.312,0.000
1691171867.613,-39.551,367.188,-24.902,-61.035,0.000
1691171867.617,-77.148,822.754,-35.156,-80.566,0.000
1691171867.621,-101.562,374.023,-38.086,-136.719,0.000
1691171867.625,-107.910,-60.059,-36.133,-130.859,0.000
1691171867.628,-136.230,-226.562,-18.555,-101.074,0.000
1691171867.632,-126.953,413.574,-6.836,-124.023,0.000
1691171867.636,-135.254,815.430,-4.883,-148.926,0.000
1691171867.640,-145.996,61.523,-8.789,-143.555,0.000
1691171867.644,0.000,-51.270,-16.113,-115.234,0.000
1691171867.648,0.000,716.309,-14.160,-82.031,0.000
1691171867.652,0.000,902.344,-20.508,-77.148,0.000
1691171867.656,0.000,100.586,-27.832,-84.473,0.000
1691171867.660,0.000,-278.320,-30.273,-80.566,0.000
1691171867.664,0.000,440.918,-26.367,-49.805,0.000
1691171867.668,0.000,-994.141,-27.832,-41.016,0.000
1691171867.671,0.000,308.105,-43.457,-59.082,0.000
1691171867.675,0.000,-662.598,-41.504,-51.758,0.000
1691171867.679,0.000,145.508,-30.273,-33.203,0.000
1691171867.683,0.000,-867.188,-26.855,-28.320,0.000
1691171867.687,0.000,514.648,-33.203,-42.969,0.000
1691171867.691,-36.621,-144.531,-43.457,-55.664,0.000
1691171867.695,-30.273,333.496,-39.551,-33.203,0.000
1691171867.699,-36.133,-984.863,-35.645,-12.695,0.000
1691171867.703,-25.391,623.535,-45.410,-36.133,0.000
1691171867.707,-8.789,-4.395,-42.969,-42.969,0.000
1691171867.711,14.160,-77.637,-40.527,-41.016,0.000
1691171867.714,20.020,674.805,-49.316,-49.805,0.000
1691171867.718,-26.367,488.770,-51.758,-47.363,0.000
1691171867.722,-5.371,-381.348,-46.387,-57.129,0.000
1691171867.726,22.461,-29.785,-43.945,-46.387,0.000
1691171867.730,-0.488,616.699,-46.875,-19.043,0.000
1691171867.734,-11.719,930.176,-40.039,-18.555,0.000
1691171867.738,-12.207,534.180,-34.180,-33.203,0.000
1691171867.742,-20.996,-104.980,-38.086,-23.926,0.000
1691171867.746,-0.977,93.262,-33.203,10.742,0.000
1691171867.750,-8.789,944.336,-30.273,20.996,0.000
1691171867.753,-71.289,733.887,-40.039,-15.137,0.000
1691171867.757,-64.941,-82.031,-36.621,-24.414,0.000
1691171867.761,-2.441,-84.473,-25.879,32.715,0.000
1691171867.765,7.812,437.500,-25.879,50.781,0.000
1691171867.769,-37.598,524.902,-29.297,-36.133,0.000
1691171867.773,-73.242,274.414,-34.668,-100.586,0.000
1691171867.777,-79.102,99.121,-46.387,-89.355,0.000
1691171867.781,-69.336,593.750,-43.945,-55.664,0.000
1691171867.785,-101.562,-998.535,-35.645,-61.523,0.000
1691171867.789,-120.117,477.051,-25.391,-88.379,0.000
1691171867.793,-104.492,-153.809,-18.066,-88.379,0.000
1691171867.796,-78.125,394.043,-23.926,-48.828,0.000
1691171867.800,-53.711,-999.512,-27.344,-36.133,0.000
1691171867.804,-27.832,437.012,-30.273,-79.590,0.000
1691171867.808,-36.621,-599.121,-29.297,-70.801,0.000
1691171867.812,-66.406,-322.266,-23.438,-10.254,0.000
1691171867.816,-35.156,-982.910,-21.973,-2.930,0.000
1691171867.820,-41.016,727.539,-30.762,-44.922,0.000
1691171867.824,-51.270,-139.160,-31.738,-46.875,0.000
1691171867.828,-47.852,145.020,-25.879,-25.879,0.000
1691171867.832,-46.875,994.629,-23.926,-30.273,0.000
1691171867.836,-29.297,699.707,-31.250,-26.855,0.000
1691171867.839,-24.902,-72.754,-34.180,-26.855,0.000
1691171867.843,-13.184,32.715,-35.645,-28.809,0.000
1691171867.847,3.906,771.973,-29.297,-6.348,0.000
1691171867.851,1.465,867.676,-30.273,-5.371,0.000
1691171867.855,-22.461,-219.238,-41.016,-19.043,0.000
1691171867.859,-53.711,-339.844,-37.109,-40.039,0.000
1691171867.863,-34.180,651.367,-34.668,-20.996,0.000
1691171867.867,-3.906,931.152,-31.250,5.859,0.000
1691171867.871,-33.691,535.156,-33.691,-1.953,0.000
1691171867.875,-32.715,208.496,-32.715,-12.207,0.000
1691171867.878,-14.160,415.039,-28.320,-28.320,0.000
1691171867.882,9.277,919.434,-32.227,-13.184,0.000
1691171867.886,11.230,804.688,-40.039,-12.207,0.000
1691171867.890,-17.578,329.590,-41.016,-41.016,0.000
1691171867.894,-32.715,366.699,-40.039,-35.156,0.000
1691171867.898,-23.438,876.465,-34.668,-5.371,0.000
1691171867.902,7.812,838.379,-27.344,-15.137,0.000
1691171867.906,-20.020,391.113,-29.785,-33.691,0.000
1691171867.910,-62.500,293.457,-33.203,-29.785,0.000
1691171867.914,-33.203,511.230,-32.227,9.766,0.000
1691171867.918,14.160,869.629,-49.316,0.977,0.000
1691171867.921,-1.953,740.234,-49.805,-36.621,0.000
1691171867.925,0.000,240.723,-32.715,-33.691,0.000
1691171867.929,0.000,461.914,-32.715,-19.531,0.000
1691171867.933,0.000,967.773,-36.133,-8.301,0.000
1691171867.937,0.000,684.082,-42.969,-17.090,0.000
1691171867.941,0.000,92.285,-44.922,-29.297,0.000
1691171867.945,0.000,87.891,-39.062,-16.113,0.000
1691171867.949,0.000,820.312,-35.645,10.254,0.000
1691171867.953,0.000,947.266,-40.039,-20.508,0.000
1691171867.957,0.000,221.680,-41.992,-40.527,0.000
1691171867.961,0.000,-78.613,-38.574,-22.949,0.000
1691171867.964,0.000,767.090,-37.598,-6.348,0.000
1691171867.968,0.000,-958.008,-33.691,-6.836,0.000
1691171867.972,-17.578,340.820,-35.645,-20.508,0.000
1691171867.976,-13.672,62.988,-41.016,-27.344,0.000
1691171867.980,-15.625,713.379,-36.621,-14.648,0.000
1691171867.984,-0.488,-950.195,-32.227,7.324,0.000
1691171867.988,-26.855,479.004,-38.086,3.906,0.000
1691171867.992,-61.035,-173.340,-40.527,-26.367,0.000
1691171867.996,-22.461,267.578,-32.227,-34.668,0.000
1691171868.000,-3.906,-899.902,-28.809,-22.461,0.000
1691171868.003,-4.883,354.492,-37.109,-19.043,0.000
1691171868.007,-4.395,-408.691,-38.086,3.418,0.000
1691171868.011,-5.859,467.285,-20.996,15.137,0.000
1691171868.015,-15.137,-983.398,-20.020,-8.301,0.000
1691171868.019,0.000,821.289,-20.020,-36.133,0.000
1691171868.023,0.000,152.344,-5.371,-35.156,0.000
1691171868.027,0.000,110.352,-9.277,-40.527,0.000
1691171868.031,0.000,864.746,-10.254,-35.645,0.000
1691171868.035,0.000,979.004,4.883,-53.223,0.000
1691171868.039,0.000,362.793,8.301,-107.422,0.000
1691171868.043,0.000,62.988,8.789,-140.625,0.000
1691171868.046,0.000,678.711,17.578,-130.371,0.000
1691171868.050,0.000,881.836,19.043,-145.508,0.000
1691171868.054,0.000,623.535,25.879,-178.223,0.000
1691171868.058,0.000,420.898,38.574,-222.168,0.000
1691171868.062,0.000,548.340,50.781,-233.398,0.000
1691171868.066,-196.777,951.172,44.922,-215.332,0.000
1691171868.070,-265.137,880.859,28.809,-276.367,0.000
1691171868.074,-264.648,424.805,32.227,-289.551,0.000
1691171868.078,-227.539,309.570,36.621,-235.840,0.000
1691171868.082,-229.004,871.582,33.691,-218.750,0.000
1691171868.086,-238.770,830.078,28.809,-230.469,0.000
1691171868.089,-230.469,241.699,22.949,-256.348,0.000
1691171868.093,-223.633,-254.883,24.902,-243.652,0.000
1691171868.097,-187.012,241.211,22.461,-201.660,0.000
1691171868.101,-180.176,998.047,12.695,-204.590,0.000
1691171868.105,-210.938,427.734,-0.977,-232.910,0.000
1691171868.109,-180.664,36.621,-4.883,-207.031,0.000
1691171868.113,-157.227,593.750,-7.324,-158.203,0.000
1691171868.117,-149.902,-989.746,-17.578,-151.367,0.000
1691171868.121,-146.973,512.207,-25.879,-144.531,0.000
1691171868.125,-116.699,88.379,-29.297,-128.418,0.000
1691171868.128,-79.102,525.391,-32.227,-126.465,0.000
1691171868.132,-97.168,-936.035,-42.480,-139.648,0.000
1691171868.136,-123.047,709.473,-56.641,-148.926,0.000
1691171868.140,-114.258,-248.535,-60.547,-110.352,0.000
1691171868.144,-90.332,114.258,-57.129,-79.102,0.000
1691171868.148,-58.594,-984.863,-63.965,-77.637,0.000
1691171868.152,-44.922,824.219,-75.684,-62.500,0.000
1691171868.156,-45.898,296.387,-82.031,-70.312,0.000
1691171868.160,-29.297,155.762,-83.984,-83.984,0.000
1691171868.164,19.043,731.445,-77.637,-15.625,0.000
1691171868.168,21.484,941.895,-75.684,16.113,0.000
1691171868.171,-18.555,550.781,-84.961,-9.766,0.000
1691171868.175,17.090,231.445,-106.445,-8.301,0.000
1691171868.179,45.410,600.586,-102.051,17.090,0.000
1691171868.183,46.387,751.465,-90.332,46.875,0.000
1691171868.187,29.785,225.586,-101.562,10.254,0.000
1691171868.191,62.988,195.312,-109.863,-7.324,0.000
1691171868.195,77.148,508.301,-115.723,20.508,0.000
1691171868.199,87.402,974.609,-111.328,72.266,0.000
1691171868.203,91.309,907.227,-118.652,78.613,0.000
1691171868.207,72.754,518.066,-125.000,62.500,0.000
1691171868.211,87.891,295.898,-128.418,82.031,0.000
1691171868.214,95.215,697.754,-131.836,102.051,0.000
1691171868.218,88.867,-990.723,-125.000,86.426,0.000
1691171868.222,68.848,691.406,-128.906,62.012,0.000
1691171868.226,98.633,215.820,-132.812,74.219,0.000
1691171868.230,134.277,400.879,-124.023,99.609,0.000
1691171868.234,134.766,958.496,-119.629,105.957,0.000
1691171868.238,135.254,916.992,-130.859,105.957,0.000
1691171868.242,108.398,417.480,-131.348,98.145,0.000
1691171868.246,92.773,536.133,-116.699,111.328,0.000
1691171868.250,118.652,-996.094,-110.352,124.512,0.000
1691171868.253,142.090,993.652,-113.770,93.750,0.000
1691171868.257,129.883,658.203,-114.746,68.359,0.000
1691171868.261,83.496,644.531,-105.469,98.633,0.000
1691171868.265,92.773,-994.629,-101.562,120.117,0.000
1691171868.269,101.562,949.707,-111.816,75.684,0.000
1691171868.273,79.590,443.359,-110.840,60.059,0.000
1691171868.277,97.656,410.156,-93.262,71.777,0.000
1691171868.281,107.422,941.895,-86.426,91.309,0.000
1691171868.285,98.633,-959.961,-83.008,79.102,0.000
1691171868.289,92.285,496.094,-79.590,54.199,0.000
1691171868.293,82.520,400.879,-75.684,60.547,0.000
1691171868.296,85.938,946.289,-68.848,76.660,0.000
1691171868.300,64.453,-947.266,-73.242,76.660,0.000
1691171868.304,39.551,479.004,-77.148,62.012,0.000
1691171868.308,27.832,224.121,-70.801,63.965,0.000
1691171868.312,55.176,832.031,-70.312,85.938,0.000
1691171868.316,67.383,-982.422,-66.406,100.098,0.000
1691171868.320,31.738,702.148,-63.965,50.293,0.000
1691171868.324,41.992,310.059,-55.176,37.598,0.000
1691171868.328,73.730,586.426,-55.664,62.500,0.000
1691171868.332,78.613,979.492,-58.105,88.379,0.000
1691171868.336,29.785,791.992,-51.758,72.754,0.000
1691171868.339,-0.977,623.047,-48.828,26.367,0.000
1691171868.343,31.250,714.355,-45.898,23.438,0.000
1691171868.347,54.199,920.410,-41.992,50.781,0.000
1691171868.351,43.457,-1000.000,-52.246,49.316,0.000
1691171868.355,0.488,818.359,-62.988,5.371,0.000
1691171868.359,-24.902,509.766,-54.688,0.977,0.000
1691171868.363,6.348,717.285,-50.781,25.879,0.000
1691171868.367,42.969,-994.141,-53.711,31.738,0.000
1691171868.371,18.555,791.504,-48.828,16.113,0.000
1691171868.375,5.859,541.016,-44.434,12.695,0.000
1691171868.378,51.758,325.195,-50.781,73.730,0.000
1691171868.382,67.871,646.973,-52.734,107.422,0.000
1691171868.386,32.715,988.281,-41.016,16.602,0.000
1691171868.390,-4.395,443.359,-33.203,-10.742,0.000
1691171868.394,-48.828,428.711,-32.227,8.789,0.000
1691171868.398,-51.758,941.406,-13.672,2.930,0.000
1691171868.402,-57.617,997.559,0.488,-15.137,0.000
1691171868.406,-55.176,604.004,-2.441,-34.180,0.000
1691171868.410,-31.738,242.676,-3.418,-42.969,0.000
1691171868.414,-61.035,658.203,5.371,-29.297,0.000
1691171868.418,-73.242,-924.316,8.789,-5.371,0.000
1691171868.421,-76.660,674.316,9.277,-43.945,0.000
1691171868.425,-84.961,-169.434,10.742,-51.270,0.000
1691171868.429,-60.547,370.605,16.602,-19.043,0.000
1691171868.433,-37.109,-877.441,12.695,-12.207,0.000
1691171868.437,-44.434,628.418,-3.906,-28.809,0.000
1691171868.441,-53.711,192.871,-8.301,-17.090,0.000
1691171868.445,-53.711,613.770,-1.465,25.879,0.000
1691171868.449,-31.738,-968.750,0.977,41.504,0.000
1691171868.453,-15.137,703.613,-5.371,15.137,0.000
1691171868.457,-30.762,265.625,2.441,-1.953,0.000
1691171868.461,-39.062,280.273,1.953,6.836,0.000
1691171868.464,-18.555,869.629,-14.648,15.625,0.000
1691171868.468,-27.832,686.035,-16.113,29.785,0.000
1691171868.472,-58.594,45.898,-9.766,26.367,0.000
1691171868.476,-48.340,428.223,-8.301,14.160,0.000
1691171868.480,8.301,836.426,-12.207,26.855,0.000
1691171868.484,49.805,-992.676,-20.508,22.461,0.000
1691171868.488,-6.836,803.223,-22.461,5.859,0.000
1691171868.492,-34.180,230.957,-15.137,-10.254,0.000
1691171868.496,-3.906,456.055,-10.742,9.766,0.000
1691171868.500,2.441,-981.445,-9.277,34.668,0.000
1691171868.504,-12.207,874.023,-13.184,17.090,0.000
1691171868.507,-18.066,285.645,-18.555,5.371,0.000
1691171868.511,-3.906,311.523,-19.531,36.621,0.000
1691171868.515,9.277,865.234,-20.020,42.480,0.000
1691171868.519,-0.977,946.777,-18.555,-0.977,0.000
1691171868.523,-13.184,696.289,-20.020,-17.578,0.000
1691171868.527,21.484,442.383,-23.438,-20.508,0.000
1691171868.531,64.941,736.328,-23.438,6.836,0.000
1691171868.535,33.203,-967.773,-26.855,-6.348,0.000
1691171868.539,6.836,788.574,-34.180,-44.922,0.000
1691171868.543,16.113,306.152,-33.691,-34.668,0.000
1691171868.546,-0.488,576.660,-33.203,-13.184,0.000
1691171868.550,-6.348,-966.309,-35.645,-3.418,0.000
1691171868.554,-7.812,699.707,-39.551,-22.949,0.000
1691171868.558,-25.391,-172.363,-36.133,-34.668,0.000
1691171868.562,-11.230,35.156,-29.785,-0.977,0.000
1691171868.566,4.883,-960.938,-27.832,13.672,0.000
1691171868.570,-34.180,889.160,-28.320,-26.855,0.000
1691171868.574,-65.918,371.094,-21.973,-29.297,0.000
1691171868.578,-49.805,533.203,-20.020,6.836,0.000
1691171868.582,16.602,-972.656,-23.926,21.484,0.000
1691171868.586,11.719,837.891,-26.855,-4.883,0.000
1691171868.589,-67.383,332.031,-27.832,-41.016,0.000
1691171868.593,-68.848,418.945,-24.414,-37.109,0.000
1691171868.597,-13.184,920.898,-24.414,-7.324,0.000
1691171868.601,-16.113,974.609,-33.691,-15.137,0.000
1691171868.605,-33.203,89.355,-40.527,-23.438,0.000
1691171868.609,-44.434,-140.137,-35.156,-22.461,0.000
1691171868.613,-58.105,737.305,-30.762,-12.207,0.000
1691171868.617,-40.039,976.562,-33.203,20.508,0.000
1691171868.621,-27.832,704.590,-34.180,-13.672,0.000
1691171868.625,-28.809,458.984,-35.156,-33.691,0.000
1691171868.628,-27.344,656.738,-32.227,-19.531,0.000
1691171868.632,-8.789,988.770,-30.762,-20.996,0.000
1691171868.636,-7.812,896.484,-32.227,-40.039,0.000
1691171868.640,-9.766,539.551,-30.273,-46.387,0.000
1691171868.644,-42.969,571.289,-33.691,-24.902,0.000
1691171868.648,-47.852,952.637,-31.738,1.465,0.000
1691171868.652,-33.691,926.758,-32.227,-15.625,0.000
1691171868.656,-49.316,616.699,-33.691,-41.016,0.000
1691171868.660,-30.762,354.980,-28.809,-23.438,0.000
1691171868.664,13.672,536.133,-28.320,3.906,0.000
1691171868.668,3.906,932.129,-29.785,-3.418,0.000
1691171868.671,-43.945,841.797,-32.227,-32.715,0.000
1691171868.675,-57.617,416.504,-41.992,-23.926,0.000
1691171868.679,-39.551,561.035,-38.086,-4.883,0.000
1691171868.683,-12.695,975.098,-26.367,6.836,0.000
1691171868.687,-21.973,946.777,-32.715,-26.855,0.000
1691171868.691,-64.453,504.395,-40.039,-65.918,0.000
1691171868.695,-41.016,368.652,-35.156,-31.250,0.000
1691171868.699,4.883,890.625,-27.832,-1.953,0.000
1691171868.703,-30.762,-968.750,-32.227,-11.719,0.000
1691171868.707,-42.969,517.578,-35.156,-17.090,0.000
1691171868.711,-10.742,215.332,-36.133,-19.043,0.000
1691171868.714,-9.766,857.910,-39.062,-8.301,0.000
1691171868.718,-12.207,-960.938,-39.551,-18.555,0.000
1691171868.722,-21.484,541.992,-38.574,-39.551,0.000
1691171868.726,-44.922,409.180,-49.805,-40.039,0.000
1691171868.730,-33.203,866.699,-39.551,-11.230,0.000
1691171868.734,-9.277,-958.984,-20.996,-2.441,0.000
1691171868.738,-13.672,670.410,-35.156,-32.715,0.000
1691171868.742,-21.484,176.270,-43.457,-33.691,0.000
1691171868.746,-9.766,528.809,-32.715,-7.812,0.000
1691171868.750,-4.883,-883.301,-33.203,2.441,0.000
1691171868.753,-17.090,484.863,-37.598,-9.277,0.000
1691171868.757,-56.641,-52.734,-41.504,-32.715,0.000
1691171868.761,-52.734,693.359,-41.992,-46.387,0.000
1691171868.765,-15.625,-992.676,-33.691,-17.578,0.000
1691171868.769,-30.273,900.879,-34.668,-20.996,0.000
1691171868.773,-49.316,504.883,-41.016,-31.250,0.000
1691171868.777,-52.734,335.449,-42.480,-19.531,0.000
1691171868.781,-17.578,829.590,-41.992,-19.531,0.000
1691171868.785,-15.625,-975.586,-39.062,-27.832,0.000
1691171868.789,-34.180,530.762,-34.668,-26.367,0.000
1691171868.793,-18.555,339.844,-33.203,-37.109,0.000
1691171868.796,-4.883,840.332,-32.227,-17.578,0.000
1691171868.800,-11.719,957.520,-36.133,0.000,0.000
1691171868.804,-26.367,869.629,-31.738,-24.902,0.000
1691171868.808,-20.996,646.484,-30.762,-38.086,0.000
1691171868.812,-19.043,693.359,-36.133,-17.090,0.000
1691171868.816,0.000,977.539,-37.109,-10.742,0.000
1691171868.820,0.000,962.891,-41.504,-26.367,0.000
1691171868.824,0.000,700.195,-41.016,-25.879,0.000
1691171868.828,0.000,507.812,-37.109,-23.926,0.000
1691171868.832,0.000,876.465,-35.645,-12.207,0.000
1691171868.836,0.000,936.035,-37.598,-26.367,0.000
1691171868.839,0.000,528.809,-41.992,-35.645,0.000
1691171868.843,0.000,-8.789,-43.457,-22.461,0.000
1691171868.847,0.000,327.148,-36.621,1.465,0.000
1691171868.851,0.000,-933.594,-36.133,-2.441,0.000
1691171868.855,0.000,812.012,-38.086,-39.062,0.000
1691171868.859,0.000,424.805,-36.621,-34.668,0.000
1691171868.863,-29.297,708.008,-25.879,33.691,0.000
1691171868.867,-41.504,-944.336,-21.973,59.570,0.000
1691171868.871,-31.738,741.211,-37.109,-11.719,0.000
1691171868.875,-29.785,338.379,-43.457,-79.102,0.000
1691171868.878,-36.621,651.367,-47.852,-61.523,0.000
1691171868.882,-42.969,-955.566,-37.598,-19.531,0.000
1691171868.886,-45.898,818.359,-36.133,-45.898,0.000
1691171868.890,-42.969,-31.250,-49.316,-81.055,0.000
1691171868.894,-7.324,269.531,-48.828,-83.496,0.000
1691171868.898,11.230,-947.754,-35.645,-76.172,0.000
1691171868.902,-43.945,870.605,-39.062,-116.211,0.000
1691171868.906,-68.848,604.980,-53.711,-151.367,0.000
1691171868.910,-66.895,640.137,-47.852,-106.445,0.000
1691171868.914,-72.754,910.156,-41.016,-75.195,0.000
1691171868.918,-72.754,909.180,-45.410,-98.633,0.000
1691171868.921,-90.332,701.172,-55.176,-112.793,0.000
1691171868.925,-102.539,463.379,-58.105,-110.352,0.000
1691171868.929,-55.664,678.711,-44.922,-70.801,0.000
1691171868.933,-40.527,837.891,-47.852,-47.363,0.000
1691171868.937,-81.055,443.359,-60.059,-66.406,0.000
1691171868.941,-81.543,397.949,-52.246,-89.844,0.000
1691171868.945,-55.664,698.730,-42.969,-83.984,0.000
1691171868.949,-37.598,982.422,-53.711,-40.527,0.000
1691171868.953,-33.203,962.891,-62.988,-43.945,0.000
1691171868.957,-18.066,730.957,-56.641,-77.148,0.000
1691171868.960,-4.395,548.340,-50.781,-64.453,0.000
1691171868.964,-25.879,836.914,-45.898,-31.738,0.000
1691171868.968,-51.270,-979.980,-39.062,-50.781,0.000
1691171868.972,-42.969,760.742,-39.062,-72.754,0.000
1691171868.976,-25.879,277.344,-40.039,-53.711,0.000
1691171868.980,-26.367,449.219,-45.410,-9.766,0.000
1691171868.984,-29.297,958.496,-41.504,-1.953,0.000
1691171868.988,-20.508,937.500,-36.133,-35.156,0.000
1691171868.992,2.441,414.551,-46.387,-42.969,0.000
1691171868.996,2.930,463.379,-46.875,-15.625,0.000
1691171869.000,-12.207,-998.047,-40.527,3.418,0.000
1691171869.003,-26.367,961.426,-38.574,-24.414,0.000
1691171869.007,-20.508,431.641,-35.156,-41.016,0.000
1691171869.011,-10.742,432.129,-39.062,-10.742,0.000
1691171869.015,-12.207,985.352,-46.387,18.066,0.000
1691171869.019,-12.207,995.117,-52.246,-20.996,0.000
1691171869.023,-24.902,198.242,-46.875,-39.062,0.000
1691171869.027,-4.395,-64.453,-37.598,-29.297,0.000
1691171869.031,18.555,830.078,-41.992,-10.254,0.000
1691171869.035,-4.883,-936.035,-41.504,-28.809,0.000
1691171869.039,-25.391,403.320,-33.691,-57.129,0.000
1691171869.042,-34.668,219.727,-31.738,-24.902,0.000
1691171869.046,-18.555,844.727,-33.691,11.230,0.000
1691171869.050,-17.578,-965.332,-41.504,4.883,0.000
1691171869.054,-27.344,601.074,-47.852,-34.668,0.000
1691171869.058,-27.832,251.465,-41.504,-38.086,0.000
1691171869.062,-26.367,694.824,-35.156,-11.230,0.000
1691171869.066,21.484,-963.867,-34.668,1.465,0.000
1691171869.070,2.441,649.902,-36.621,-11.230,0.000
1691171869.074,-32.227,196.289,-43.457,-0.488,0.000
1691171869.078,-12.207,561.035,-43.945,7.812,0.000
1691171869.082,-35.156,-999.023,-36.133,-17.578,0.000
1691171869.085,-55.664,712.891,-44.434,-40.039,0.000
1691171869.089,-33.203,443.848,-45.898,-57.617,0.000
1691171869.093,-22.461,554.199,-44.434,-68.359,0.000
1691171869.097,-57.129,854.980,-50.781,-63.477,0.000
1691171869.101,-71.777,-978.516,-50.293,-76.660,0.000
1691171869.105,-61.035,761.719,-45.898,-89.844,0.000
1691171869.109,-71.777,197.754,-42.480,-81.543,0.000
1691171869.113,-68.359,472.168,-45.410,-65.430,0.000
1691171869.117,-47.852,-990.723,-45.898,-51.270,0.000
1691171869.121,-58.105,760.254,-44.434,-69.336,0.000
1691171869.125,-72.266,492.676,-48.340,-85.938,0.000
1691171869.128,-47.363,316.406,-44.434,-71.289,0.000
1691171869.132,-31.738,629.395,-37.109,-45.410,0.000
1691171869.136,-37.109,-999.023,-36.133,-57.617,0.000
1691171869.140,-47.363,531.738,-34.180,-66.895,0.000
1691171869.144,-40.527,401.367,-25.879,-45.410,0.000
1691171869.148,-36.133,899.902,-37.109,-27.832,0.000
1691171869.152,-58.105,-973.145,-47.852,-34.180,0.000
1691171869.156,-57.617,639.160,-39.551,-41.016,0.000
1691171869.160,-39.551,293.457,-42.480,-29.785,0.000
1691171869.164,-14.648,729.004,-45.898,4.883,0.000
1691171869.168,-8.301,-979.004,-46.387,-6.348,0.000
1691171869.171,-19.531,558.594,-47.363,-50.781,0.000
1691171869.175,-15.625,-190.430,-35.645,-46.387,0.000
1691171869.179,7.812,359.375,-29.297,-15.625,0.000
1691171869.183,-2.930,-881.836,-39.062,-6.348,0.000
1691171869.187,-39.062,651.367,-45.410,-19.531,0.000
1691171869.191,-33.203,222.656,-37.109,-41.016,0.000
1691171869.195,-19.531,639.648,-31.738,-30.762,0.000
1691171869.199,-24.414,-985.352,-33.203,5.859,0.000
1691171869.203,-27.344,811.035,-34.668,-23.926,0.000
1691171869.207,-13.184,408.203,-33.691,-36.621,0.000
1691171869.211,-9.277,262.207,-31.738,-7.324,0.000
1691171869.214,0.488,852.051,-30.273,8.301,0.000
1691171869.218,-1.465,694.336,-38.574,-13.184,0.000
1691171869.222,-16.113,57.617,-35.156,-29.785,0.000
1691171869.226,-12.207,430.664,-23.926,-15.625,0.000
1691171869.230,5.371,834.961,-26.855,11.719,0.000
1691171869.234,-19.531,998.535,-30.273,1.465,0.000
1691171869.238,-51.758,836.914,-27.832,-43.945,0.000
1691171869.242,-11.230,302.246,-35.156,-48.828,0.000
1691171869.246,5.371,466.797,-39.551,-24.902,0.000
1691171869.250,-15.137,-982.910,-33.203,-24.902,0.000
1691171869.253,-21.973,870.605,-34.668,-52.246,0.000
1691171869.257,-39.551,314.941,-37.109,-57.129,0.000
1691171869.261,-31.250,278.809,-29.297,-18.066,0.000
1691171869.265,-1.953,797.852,-20.020,34.668,0.000
1691171869.269,-9.277,926.270,-26.855,-2.441,0.000
1691171869.273,-29.297,495.117,-41.016,-60.059,0.000
1691171869.277,-23.926,179.688,-45.410,-45.410,0.000
1691171869.281,0.977,675.293,-34.668,-21.484,0.000
1691171869.285,14.160,-956.543,0.000,-11.719,0.000
1691171869.289,0.000,756.836,0.000,-20.996,0.000
1691171869.293,-34.668,231.445,0.000,-26.367,0.000
1691171869.296,-32.715,528.320,0.000,-7.324,0.000
1691171869.300,-31.250,-958.984,0.000,-4.883,0.000
1691171869.304,-48.340,770.020,0.000,-29.297,0.000
1691171869.308,-31.738,-183.594,0.000,-31.738,0.000
1691171869.312,2.930,-57.129,0.000,-14.648,0.000
1691171869.316,20.996,-968.262,0.000,-6.348,0.000
1691171869.320,2.441,905.762,0.000,-14.648,0.000
1691171869.324,-41.504,353.027,0.000,-23.926,0.000
1691171869.328,-48.828,460.449,0.000,7.324,0.000
1691171869.332,-21.484,-998.047,-27.344,2.930,0.000
1691171869.336,-39.551,853.516,-25.879,-34.668,0.000
1691171869.339,-42.480,342.773,-35.156,-39.551,0.000
1691171869.343,-25.879,407.227,-32.715,-32.227,0.000
1691171869.347,-12.695,896.484,-19.043,4.395,0.000
1691171869.351,1.465,986.816,-20.020,7.812,0.000
1691171869.355,0.000,190.430,-39.062,-10.742,0.000
1691171869.359,-19.043,20.020,-34.180,-35.645,0.000
1691171869.363,-12.695,765.625,-23.438,-20.020,0.000
1691171869.367,-2.441,967.773,-31.738,-5.859,0.000
1691171869.371,-22.949,732.422,-41.992,-61.035,0.000
1691171869.375,-32.227,487.305,-41.016,-84.473,0.000
1691171869.378,14.160,665.527,-36.133,-54.688,0.000
1691171869.382,45.898,-998.535,-36.621,-11.230,0.000
1691171869.386,27.832,780.273,-35.645,-28.320,0.000
1691171869.390,15.137,398.926,-37.109,-59.082,0.000
1691171869.394,-17.578,549.805,-34.180,-40.527,0.000
1691171869.398,-27.832,843.262,-31.738,3.906,0.000
1691171869.402,-28.320,892.090,-27.344,19.531,0.000
1691171869.406,-42.480,654.785,-28.320,-12.695,0.000
1691171869.410,-59.570,437.500,-32.715,-33.691,0.000
1691171869.414,-42.969,694.336,-25.879,-19.531,0.000
1691171869.418,-26.855,988.281,-26.367,-10.254,0.000
1691171869.421,-39.062,801.758,-31.250,-23.926,0.000
1691171869.425,-62.012,354.980,-29.297,-19.043,0.000
1691171869.429,-42.480,499.023,-22.949,13.672,0.000
1691171869.433,-14.160,979.980,-30.762,10.742,0.000
1691171869.437,-25.879,905.273,-40.039,-24.902,0.000
1691171869.441,-27.832,348.145,-33.203,-52.734,0.000
1691171869.445,-27.344,269.531,-27.344,-30.273,0.000
1691171869.449,-27.832,892.578,-21.973,10.254,0.000
1691171869.453,-43.945,931.152,-30.273,-18.555,0.000
1691171869.457,-63.965,334.961,-37.598,-32.715,0.000
1691171869.461,-45.410,-122.070,-38.086,-23.438,0.000
1691171869.464,-5.371,620.117,-39.551,-9.766,0.000
1691171869.468,-11.230,-890.625,-38.086,-21.484,0.000
1691171869.472,0.000,490.723,-32.715,-37.598,0.000
1691171869.476,0.000,190.430,-27.832,6.348,0.000
1691171869.480,0.000,752.441,-32.715,17.090,0.000
1691171869.484,0.000,-937.500,-39.062,-20.508,0.000
1691171869.488,0.000,602.539,-35.156,-41.504,0.000
1691171869.492,0.000,-28.320,-29.297,-34.180,0.000
1691171869.496,0.000,392.090,-30.273,-5.859,0.000
1691171869.500,0.000,-886.719,-30.273,9.277,0.000
1691171869.503,0.000,495.605,-39.062,-14.160,0.000
1691171869.507,0.000,-165.527,-47.363,-28.809,0.000
1691171869.511,0.000,536.133,-41.992,-27.344,0.000
1691171869.515,0.000,-998.535,-36.133,-10.742,0.000
1691171869.519,-35.645,907.715,-33.203,-11.230,0.000
1691171869.523,-43.457,406.738,-38.086,-24.414,0.000
1691171869.527,-34.668,328.125,-47.363,-20.508,0.000
1691171869.531,-27.344,900.391,-41.016,-6.836,0.000
1691171869.535,-33.203,995.117,-36.621,-10.742,0.000
1691171869.539,-13.184,505.859,-44.434,-20.020,0.000
1691171869.543,1.465,247.070,-41.504,-26.367,0.000
1691171869.546,-9.277,752.441,-36.133,-10.254,0.000
1691171869.550,-28.809,948.242,-42.969,-0.977,0.000
1691171869.554,-34.668,681.641,-49.805,-41.992,0.000
1691171869.558,-28.320,510.254,-41.992,-41.992,0.000
1691171869.562,-24.414,779.785,-38.086,-9.277,0.000
1691171869.566,-13.184,991.211,-41.504,4.395,0.000
1691171869.570,-71.777,938.477,-39.551,-4.395,0.000
1691171869.574,-54.688,713.867,-34.180,-36.133,0.000
1691171869.578,-15.137,588.867,-30.273,-35.156,0.000
1691171869.582,-0.977,910.645,-33.691,-10.254,0.000
1691171869.585,-18.066,899.902,-40.527,-20.020,0.000
1691171869.589,-13.672,507.812,-34.668,-33.691,0.000
1691171869.593,-16.113,81.055,-30.273,-7.812,0.000
1691171869.597,-37.109,365.723,-26.367,27.344,0.000
1691171869.601,-42.480,-950.684,-28.809,1.465,0.000
1691171869.605,-38.086,833.008,-36.133,-28.320,0.000
1691171869.609,-35.645,313.965,-37.598,-28.809,0.000
1691171869.613,-36.133,567.871,-33.691,-18.066,0.000
1691171869.617,-22.949,-940.430,-36.621,6.836,0.000
1691171869.621,-17.090,780.273,-41.016,-14.160,0.000
1691171869.625,-25.879,363.281,-30.762,-39.551,0.000
1691171869.628,-29.297,641.602,-23.438,-34.180,0.000
1691171869.632,-29.297,-962.891,-25.391,-16.602,0.000
1691171869.636,-45.410,853.027,-34.668,-30.762,0.000
1691171869.640,-44.434,37.598,-35.645,-32.227,0.000
1691171869.644,-35.645,234.863,-27.832,-16.602,0.000
1691171869.648,-15.625,-963.379,-26.855,-4.883,0.000
1691171869.652,-22.949,850.586,-29.785,-16.113,0.000
1691171869.656,-51.270,456.055,-30.273,-47.363,0.000
1691171869.660,-40.527,579.590,-31.738,-30.273,0.000
1691171869.664,3.906,925.781,-34.180,-1.465,0.000
1691171869.668,-1.465,932.129,-38.574,-2.930,0.000
1691171869.671,-58.105,760.254,-39.551,-44.922,0.000
1691171869.675,-60.059,483.398,-32.227,-69.336,0.000
1691171869.679,-29.785,681.152,-27.344,-31.250,0.000
1691171869.683,-23.438,856.934,-31.250,-9.277,0.000
1691171869.687,-25.879,488.281,-38.574,-22.461,0.000
1691171869.691,1.953,478.027,-42.969,-17.090,0.000
1691171869.695,30.273,717.285,-37.109,18.066,0.000
1691171869.699,16.113,970.215,-20.508,12.695,0.000
1691171869.703,-32.715,969.238,-20.508,-37.598,0.000
1691171869.707,-29.297,737.305,-29.297,-39.551,0.000
1691171869.710,-24.414,477.539,-23.926,-23.926,0.000
1691171869.714,-34.180,770.508,-21.484,-3.418,0.000
1691171869.718,-29.785,-981.934,-21.484,1.953,0.000
1691171869.722,-58.105,664.551,-24.902,2.930,0.000
1691171869.726,-46.875,203.613,-30.273,11.719,0.000
1691171869.730,-9.277,423.828,-23.926,32.715,0.000
1691171869.734,-12.207,955.078,-17.578,28.320,0.000
1691171869.738,-9.277,930.664,-15.137,11.230,0.000
1691171869.742,5.859,366.699,-11.719,9.766,0.000
1691171869.746,6.348,345.215,-9.766,29.785,0.000
1691171869.750,-14.648,991.211,-9.766,48.340,0.000
1691171869.753,-18.555,950.195,-19.043,34.668,0.000
1691171869.757,-38.086,333.008,-27.344,8.789,0.000
1691171869.761,-29.297,403.809,-19.531,15.137,0.000
1691171869.765,15.137,981.934,-11.719,51.758,0.000
1691171869.769,11.719,-983.887,-14.648,25.391,0.000
1691171869.773,1.465,174.805,-16.113,7.812,0.000
1691171869.777,12.695,-303.711,-18.066,20.508,0.000
1691171869.781,15.137,697.754,-15.137,33.691,0.000
1691171869.785,-13.672,-946.777,-21.973,37.109,0.000
1691171869.789,-47.363,492.676,-31.250,7.324,0.000
1691171869.792,-38.574,272.461,-25.391,-12.695,0.000
1691171869.796,-9.766,774.414,-15.137,3.906,0.000
1691171869.800,1.465,-980.957,-21.484,2.441,0.000
1691171869.804,-7.324,604.492,-26.367,7.812,0.000
1691171869.808,-15.625,348.145,-22.949,25.391,0.000
1691171869.812,3.906,713.379,-33.691,18.555,0.000
1691171869.816,40.039,-973.633,-29.785,17.090,0.000
1691171869.820,12.695,676.758,-28.320,-5.371,0.000
1691171869.824,-29.297,280.273,-34.668,-11.719,0.000
1691171869.828,-16.113,643.066,-31.250,-2.930,0.000
1691171869.832,-10.742,986.328,-29.785,13.184,0.000
1691171869.835,-20.020,753.418,-31.738,3.418,0.000
1691171869.839,-14.648,560.547,-33.691,1.953,0.000
1691171869.843,1.465,642.578,-36.133,9.766,0.000
1691171869.847,10.742,896.484,-34.668,6.836,0.000
1691171869.851,26.367,-994.141,-41.504,1.953,0.000
1691171869.855,-9.766,841.797,-50.781,-10.254,0.000
1691171869.859,-52.246,600.586,-43.945,1.953,0.000
1691171869.863,-20.508,759.277,-38.574,22.949,0.000
1691171869.867,-9.766,-980.957,-41.504,19.531,0.000
1691171869.871,-14.648,749.023,-52.246,-24.414,0.000
1691171869.875,-20.020,483.398,-48.340,-42.480,0.000
1691171869.878,-21.973,404.297,-36.621,-19.531,0.000
1691171869.882,-20.996,684.570,-37.598,22.461,0.000
1691171869.886,-15.137,997.070,-41.992,-2.441,0.000
1691171869.890,-1.465,429.199,-42.480,-36.621,0.000
1691171869.894,-22.949,353.516,-40.039,-33.691,0.000
1691171869.898,-8.789,911.621,-35.645,1.465,0.000
1691171869.902,-3.418,-970.703,-40.039,3.906,0.000
1691171869.906,-49.316,717.773,-42.480,-24.414,0.000
1691171869.910,-49.316,406.250,-44.922,-32.715,0.000
1691171869.914,-9.766,729.492,-45.410,-12.695,0.000
1691171869.918,-7.812,-941.895,-42.480,1.465,0.000
1691171869.921,-32.715,761.230,-46.387,-11.719,0.000
1691171869.925,-6.836,0.977,-48.340,8.789,0.000
1691171869.929,-15.137,446.289,-45.410,-6.836,0.000
1691171869.933,-25.391,-898.926,-38.086,-22.461,0.000
1691171869.937,-8.301,742.676,-32.715,-11.719,0.000
1691171869.941,-34.668,434.570,-36.133,-16.113,0.000
1691171869.945,-30.762,688.965,-34.668,-23.926,0.000
1691171869.949,-2.930,980.957,-38.086,-14.648,0.000
1691171869.953,-12.207,873.535,-44.434,-23.926,0.000
1691171869.957,-26.855,558.105,-41.016,-28.320,0.000
1691171869.960,-23.926,417.480,-44.434,-20.020,0.000
1691171869.964,0.488,887.695,-40.039,-4.883,0.000
1691171869.968,-3.418,746.094,-40.527,-3.418,0.000
1691171869.972,-34.180,199.707,-44.922,-27.832,0.000
1691171869.976,-35.156,596.191,-41.016,-32.227,0.000
1691171869.980,-35.645,922.363,-46.387,-17.578,0.000
1691171869.984,-47.363,976.562,-51.270,-12.207,0.000
1691171869.988,-58.594,924.805,-56.641,-31.738,0.000
1691171869.992,-50.293,524.902,-54.688,-32.227,0.000
1691171869.996,-10.254,611.328,-46.387,-16.602,0.000
1691171870.000,16.602,-992.676,-50.293,-4.883,0.000
1691171870.003,-21.484,925.293,-60.059,-16.602,0.000
1691171870.007,-74.219,538.086,-60.059,-38.574,0.000
1691171870.011,-66.406,555.176,-54.688,-47.363,0.000
1691171870.015,-21.484,948.730,-44.922,-22.461,0.000
1691171870.019,-38.086,978.027,-42.480,-20.020,0.000
1691171870.023,-34.668,842.285,-45.898,-32.715,0.000
1691171870.027,-11.719,641.602,-50.781,-31.250,0.000
1691171870.031,-19.043,802.734,-47.363,-0.488,0.000
1691171870.035,-30.273,-987.793,-42.969,-0.488,0.000
1691171870.039,-54.199,868.652,-51.270,-49.805,0.000
1691171870.043,-52.246,464.844,-55.664,-67.871,0.000
1691171870.046,-44.434,635.254,-60.547,-37.109,0.000
1691171870.050,-27.344,-977.051,-61.035,-13.184,0.000
1691171870.054,-15.625,791.504,-56.152,-42.480,0.000
1691171870.058,-34.668,-25.879,-62.988,-39.062,0.000
1691171870.062,-31.250,72.754,-61.035,-12.695,0.000
1691171870.066,-14.160,-984.375,-51.270,-21.484,0.000
1691171870.070,-27.344,956.055,-52.734,-43.457,0.000
1691171870.074,-32.227,494.629,-53.711,-63.965,0.000
1691171870.078,-32.715,566.895,-52.734,-50.293,0.000
1691171870.082,-38.086,-993.652,-56.152,-23.926,0.000
1691171870.085,-29.785,924.316,-61.035,-36.133,0.000
1691171870.089,-43.945,589.355,-63.965,-62.988,0.000
1691171870.093,-54.688,661.133,-59.570,-44.434,0.000
1691171870.097,-23.438,964.355,-58.105,-6.348,0.000
1691171870.101,-6.836,-993.164,-65.430,-13.184,0.000
1691171870.105,-26.367,327.637,-65.918,-41.992,0.000
1691171870.109,-44.922,162.598,-64.941,-56.152,0.000
1691171870.113,-26.367,803.711,-61.523,-14.648,0.000
1691171870.117,-24.902,975.586,-56.641,-0.488,0.000
1691171870.121,-52.246,925.293,-60.059,-41.992,0.000
1691171870.125,-69.336,796.387,-60.059,-52.246,0.000
1691171870.128,-48.828,838.867,-62.012,-42.969,0.000
1691171870.132,-17.090,966.309,-63.477,-23.926,0.000
1691171870.136,-38.086,967.773,-63.965,-40.527,0.000
1691171870.140,-46.387,777.832,-65.918,-42.480,0.000
1691171870.144,-13.672,725.586,-62.988,-16.602,0.000
1691171870.148,-3.418,914.551,-57.617,4.395,0.000
1691171870.152,-28.809,975.098,-61.523,-18.555,0.000
1691171870.156,-34.668,860.352,-64.453,-52.734,0.000
1691171870.160,-39.062,703.613,-53.711,-36.621,0.000
1691171870.164,-28.320,877.441,-49.316,-6.348,0.000
1691171870.167,-9.766,990.234,-60.059,-4.883,0.000
1691171870.171,-33.691,891.602,-62.500,-33.691,0.000
1691171870.175,-46.387,676.758,-54.199,-45.410,0.000
1691171870.179,-56.152,731.445,-55.664,-13.184,0.000
1691171870.183,-26.855,968.262,-49.316,0.977,0.000
1691171870.187,-17.090,976.074,-46.387,-24.902,0.000
1691171870.191,-32.227,627.441,-53.711,-30.273,0.000
1691171870.195,-8.789,450.684,-52.734,-28.809,0.000
1691171870.199,-7.812,882.812,-50.781,-8.301,0.000
1691171870.203,-32.715,-952.148,-50.781,-27.832,0.000
1691171870.207,-22.949,683.594,-49.805,-65.918,0.000
1691171870.210,-7.324,334.473,-55.176,-53.223,0.000
1691171870.214,18.066,807.129,-58.594,-40.039,0.000
1691171870.218,17.090,-898.438,-53.711,-44.922,0.000
1691171870.222,0.000,598.633,-53.223,-38.574,0.000
1691171870.226,0.000,268.066,-54.199,-46.387,0.000
1691171870.230,0.000,826.172,-46.387,-28.809,0.000
1691171870.234,0.000,-937.988,-41.992,-6.836,0.000
1691171870.238,0.000,667.969,-42.969,-25.391,0.000
1691171870.242,0.000,189.453,-40.527,-29.785,0.000
1691171870.246,0.000,557.617,-41.016,-13.184,0.000
1691171870.250,0.000,-895.020,-48.828,-7.324,0.000
1691171870.253,0.000,558.105,-55.664,-12.695,0.000
1691171870.257,0.000,15.625,-53.223,-33.203,0.000
1691171870.261,0.000,668.945,-47.363,-34.180,0.000
1691171870.265,0.000,999.512,-44.434,0.000,0.000
1691171870.269,-24.414,958.008,-49.805,-4.395,0.000
1691171870.273,-42.969,574.219,-56.152,-31.250,0.000
1691171870.277,-54.688,423.828,-56.641,-24.902,0.000
1691171870.281,-44.922,881.836,-50.781,-1.465,0.000
1691171870.285,-33.203,-980.469,-47.852,-20.996,0.000
1691171870.289,-47.363,713.379,-48.828,-34.180,0.000
1691171870.293,-45.410,379.883,-44.922,-32.227,0.000
1691171870.296,-37.598,703.613,-41.016,-9.766,0.000
1691171870.300,-27.344,974.609,-42.969,8.789,0.000
1691171870.304,-39.551,925.781,-46.875,-35.645,0.000
1691171870.308,-69.336,844.238,-51.758,-42.969,0.000
1691171870.312,-44.922,874.023,-50.781,-21.484,0.000
1691171870.316,-20.508,977.051,-47.363,-4.883,0.000
1691171870.320,-6.348,960.938,-49.805,-10.254,0.000
1691171870.324,-15.137,866.699,-42.480,-28.809,0.000
1691171870.328,-24.902,780.762,-32.715,-19.531,0.000
1691171870.332,-14.648,927.734,-31.250,2.930,0.000
1691171870.336,-36.621,953.613,-39.062,-15.137,0.000
1691171870.339,-42.480,662.598,-44.434,-43.945,0.000
1691171870.343,-18.066,146.973,-38.086,-11.230,0.000
1691171870.347,-13.184,400.879,-28.320,12.695,0.000
1691171870.351,-18.066,-964.355,-34.180,-18.555,0.000
1691171870.355,-18.066,915.039,-43.457,-41.504,0.000
1691171870.359,-31.250,690.918,-43.457,-18.066,0.000
1691171870.363,-35.156,836.914,-45.410,-6.836,0.000
1691171870.367,-21.973,-978.516,-43.945,-19.531,0.000
1691171870.371,-34.180,857.910,-41.016,-45.410,0.000
1691171870.375,-43.457,691.406,-41.016,-48.340,0.000
1691171870.378,-27.344,854.492,-43.945,-8.789,0.000
1691171870.382,-7.324,991.699,-41.504,-10.742,0.000
1691171870.386,-27.344,975.586,-41.992,-43.945,0.000
1691171870.390,-60.059,297.363,-47.363,-51.270,0.000
1691171870.394,-50.293,375.000,-51.758,-44.922,0.000
1691171870.398,-44.922,-950.195,-49.316,-27.344,0.000
1691171870.402,-51.270,905.762,-57.617,-17.578,0.000
1691171870.406,-64.453,765.625,-69.336,-46.387,0.000
1691171870.410,-49.316,885.254,-58.105,-58.105,0.000
1691171870.414,-8.301,980.469,-50.781,-43.945,0.000
1691171870.418,-15.137,941.895,-52.734,-34.668,0.000
1691171870.421,-40.527,969.727,-51.270,-23.438,0.000
1691171870.425,-27.832,832.031,-53.223,-30.273,0.000
1691171870.429,-16.602,842.773,-51.270,-35.645,0.000
1691171870.433,-38.574,907.715,-43.945,-2.930,0.000
1691171870.437,-45.410,763.672,-46.875,-14.160,0.000
1691171870.441,-36.133,913.574,-44.922,-38.574,0.000
1691171870.445,-21.973,972.168,-41.992,-4.395,0.000
1691171870.449,6.348,953.613,-49.805,4.883,0.000
1691171870.453,-30.273,978.516,-58.594,-42.480,0.000
1691171870.457,-54.688,932.617,-57.617,-62.500,0.000
1691171870.461,-38.574,811.523,-48.828,-38.086,0.000
1691171870.464,-32.715,898.926,-42.480,-11.719,0.000
1691171870.468,-42.480,-999.023,-43.457,-20.508,0.000
1691171870.472,-38.574,905.273,-45.410,-49.805,0.000
1691171870.476,-27.344,608.398,-46.875,-61.035,0.000
1691171870.480,-28.320,735.840,-44.922,-33.691,0.000
1691171870.484,-19.043,974.609,-36.621,-1.465,0.000
1691171870.488,-7.812,-998.047,-34.668,3.418,0.000
1691171870.492,-19.531,699.219,-36.133,-16.602,0.000
1691171870.496,-19.531,466.309,-34.668,-1.465,0.000
1691171870.500,15.137,948.242,-33.203,18.066,0.000
1691171870.503,-27.344,929.199,-38.574,-19.531,0.000
1691171870.507,-70.801,522.949,-43.457,-55.176,0.000
1691171870.511,-44.434,671.875,-43.457,-57.129,0.000
1691171870.515,-28.809,973.633,-43.457,-40.527,0.000
1691171870.519,-71.289,-954.102,-41.016,-75.684,0.000
1691171870.523,-87.891,540.039,-42.480,-83.008,0.000
1691171870.527,-74.219,351.074,-41.504,-64.453,0.000
1691171870.531,-60.547,958.984,-31.250,-37.598,0.000
1691171870.535,-42.480,-953.613,-29.785,-41.504,0.000
1691171870.539,-49.316,579.102,-37.109,-62.988,0.000
1691171870.543,-39.062,464.844,-36.621,-52.246,0.000
1691171870.546,-47.852,942.383,-33.691,-42.480,0.000
1691171870.550,-47.852,-995.117,-42.480,-36.133,0.000
1691171870.554,-36.621,771.484,-44.922,-65.918,0.000
1691171870.558,-51.758,531.250,-40.039,-57.129,0.000
1691171870.562,-68.359,745.605,-38.574,-39.062,0.000
1691171870.566,-55.176,-998.047,-35.645,-28.320,0.000
1691171870.570,-56.641,819.336,-42.969,-29.297,0.000
1691171870.574,-51.758,639.160,-45.410,-61.035,0.000
1691171870.578,-32.227,841.309,-39.551,-53.223,0.000
1691171870.582,-20.508,976.562,-36.621,-22.949,0.000
1691171870.586,-30.273,940.918,-37.598,-28.809,0.000
1691171870.589,-45.898,942.871,-42.480,-41.504,0.000
1691171870.593,-29.785,909.668,-44.922,-43.945,0.000
1691171870.597,-31.250,948.242,-42.480,-46.875,0.000
1691171870.601,-38.574,978.516,-42.969,-43.945,0.000
1691171870.605,-46.875,947.754,-46.875,-45.898,0.000
1691171870.609,-48.340,897.949,-43.457,-51.758,0.000
1691171870.613,-21.484,912.598,-36.133,-35.645,0.000
1691171870.617,-20.508,992.676,-37.598,-25.879,0.000
1691171870.621,-38.086,833.008,-47.363,-39.551,0.000
1691171870.625,-35.645,647.461,-42.480,-25.391,0.000
1691171870.628,-20.508,559.082,-37.109,-15.625,0.000
1691171870.632,-4.883,727.539,-38.086,-10.254,0.000
1691171870.636,-31.738,-977.539,-40.527,-24.414,0.000
1691171870.640,-42.969,850.586,-43.945,-50.293,0.000
1691171870.644,-40.039,750.977,-32.227,-33.203,0.000
1691171870.648,-25.391,936.523,-22.949,-2.441,0.000
1691171870.652,-23.926,-990.234,-32.715,-25.391,0.000
1691171870.656,-47.363,862.305,-40.039,-46.875,0.000
1691171870.660,-27.344,640.137,-38.574,-36.621,0.000
1691171870.664,1.953,834.473,-36.133,-11.230,0.000
1691171870.668,-12.695,-962.402,-37.598,-6.348,0.000
1691171870.671,-38.574,795.410,-39.062,-24.414,0.000
1691171870.675,-26.367,152.344,-36.133,-34.180,0.000
1691171870.679,7.324,512.695,-36.621,-2.930,0.000
1691171870.683,32.227,-915.527,-31.250,38.574,0.000
1691171870.687,-8.789,790.039,-24.902,-4.883,0.000
1691171870.691,-67.383,622.070,-24.902,-74.707,0.000
1691171870.695,-61.523,873.535,-22.949,-65.430,0.000
1691171870.699,-59.570,993.652,-8.789,-35.645,0.000
1691171870.703,-94.238,893.066,-1.465,-84.961,0.000
1691171870.707,-124.023,699.219,3.418,-120.605,0.000
1691171870.711,-139.160,653.320,13.184,-104.492,0.000
1691171870.714,-118.652,973.145,7.324,-90.820,0.000
1691171870.718,-148.926,788.086,3.906,-121.582,0.000
1691171870.722,-158.203,424.805,15.137,-163.086,0.000
1691171870.726,-158.691,675.293,25.879,-157.227,0.000
1691171870.730,-154.785,877.930,24.414,-125.000,0.000
1691171870.734,-127.930,970.215,24.902,-105.957,0.000
1691171870.738,-148.926,979.980,26.855,-105.469,0.000
1691171870.742,-151.367,680.176,17.090,-112.793,0.000
1691171870.746,-119.141,683.594,14.648,-105.469,0.000
1691171870.750,-82.031,989.746,16.602,-71.289,0.000
1691171870.754,-66.895,987.793,10.254,-67.871,0.000
1691171870.757,-76.660,724.121,4.395,-60.059,0.000
1691171870.761,-75.195,679.688,-1.465,-53.711,0.000
1691171870.765,-46.387,969.727,3.906,-25.879,0.000
1691171870.769,-61.035,972.168,12.695,-17.090,0.000
1691171870.773,-63.965,946.289,1.465,-36.621,0.000
1691171870.777,-38.574,870.117,-8.301,-29.297,0.000
1691171870.781,-32.227,900.391,-11.719,-20.996,0.000
1691171870.785,-27.832,977.051,-16.113,-17.578,0.000
1691171870.789,-30.273,977.539,-16.113,-25.879,0.000
1691171870.793,-18.555,812.012,-1.465,-31.738,0.000
